Experiment	Frequency Sweep	
Date	17.02.2021 13:15:05	
User		
f_res (Hz)	21473,9993	
Q	1762	
Phase (deg)	-126,26	
Amp/Exc (nm/mV)	0,882419	
Number of points	2000	
Fit length	11	

[DATA]
Frequency Shift (Hz)	Center Frequency (Hz)	Amplitude (m)	Phase (deg)
-76.3000E+0	21.4915E+3	14.6172E-9	43.6050E+0
-76.2237E+0	21.4915E+3	15.2935E-9	50.2471E+0
-76.1473E+0	21.4915E+3	15.0424E-9	50.4387E+0
-76.0710E+0	21.4915E+3	13.9276E-9	42.7646E+0
-75.9946E+0	21.4915E+3	14.6687E-9	51.2328E+0
-75.9183E+0	21.4915E+3	13.4084E-9	49.4976E+0
-75.8420E+0	21.4915E+3	14.1391E-9	48.7671E+0
-75.7656E+0	21.4915E+3	13.9515E-9	54.1344E+0
-75.6893E+0	21.4915E+3	15.0399E-9	49.5529E+0
-75.6129E+0	21.4915E+3	14.9270E-9	52.1248E+0
-75.5366E+0	21.4915E+3	14.1598E-9	50.3185E+0
-75.4603E+0	21.4915E+3	14.6524E-9	49.6988E+0
-75.3839E+0	21.4915E+3	14.6114E-9	52.6320E+0
-75.3076E+0	21.4915E+3	14.3172E-9	50.7803E+0
-75.2312E+0	21.4915E+3	13.9596E-9	51.2098E+0
-75.1549E+0	21.4915E+3	14.4751E-9	52.7189E+0
-75.0786E+0	21.4915E+3	13.5007E-9	50.1685E+0
-75.0022E+0	21.4915E+3	14.4513E-9	51.8118E+0
-74.9259E+0	21.4915E+3	14.9454E-9	54.0325E+0
-74.8495E+0	21.4915E+3	14.7920E-9	54.9879E+0
-74.7732E+0	21.4915E+3	14.8297E-9	57.0813E+0
-74.6969E+0	21.4915E+3	13.4952E-9	48.3970E+0
-74.6205E+0	21.4915E+3	14.0239E-9	51.1096E+0
-74.5442E+0	21.4915E+3	14.9055E-9	48.0881E+0
-74.4678E+0	21.4915E+3	13.9116E-9	48.6997E+0
-74.3915E+0	21.4915E+3	14.3138E-9	50.7171E+0
-74.3152E+0	21.4915E+3	14.1502E-9	47.3518E+0
-74.2388E+0	21.4915E+3	14.3227E-9	50.6334E+0
-74.1625E+0	21.4915E+3	13.9548E-9	55.6389E+0
-74.0862E+0	21.4915E+3	14.5503E-9	55.8411E+0
-74.0098E+0	21.4915E+3	14.5763E-9	49.3163E+0
-73.9335E+0	21.4915E+3	14.5787E-9	55.8758E+0
-73.8571E+0	21.4915E+3	14.6852E-9	50.0730E+0
-73.7808E+0	21.4915E+3	13.9223E-9	48.5050E+0
-73.7045E+0	21.4915E+3	14.5307E-9	50.7607E+0
-73.6281E+0	21.4915E+3	14.1372E-9	54.8930E+0
-73.5518E+0	21.4915E+3	13.9312E-9	52.3696E+0
-73.4754E+0	21.4915E+3	13.1364E-9	55.4893E+0
-73.3991E+0	21.4915E+3	13.9470E-9	51.9211E+0
-73.3228E+0	21.4915E+3	14.3520E-9	56.3869E+0
-73.2464E+0	21.4915E+3	13.5325E-9	45.5833E+0
-73.1701E+0	21.4915E+3	15.0844E-9	48.4708E+0
-73.0937E+0	21.4915E+3	14.0141E-9	54.8478E+0
-73.0174E+0	21.4915E+3	14.0804E-9	53.3580E+0
-72.9411E+0	21.4915E+3	14.0961E-9	55.0740E+0
-72.8647E+0	21.4915E+3	14.3276E-9	48.7329E+0
-72.7884E+0	21.4915E+3	14.8231E-9	55.8948E+0
-72.7120E+0	21.4915E+3	14.0908E-9	51.8639E+0
-72.6357E+0	21.4915E+3	13.2629E-9	56.8451E+0
-72.5594E+0	21.4915E+3	15.0528E-9	54.9775E+0
-72.4830E+0	21.4915E+3	14.3486E-9	52.7372E+0
-72.4067E+0	21.4915E+3	14.4887E-9	45.9927E+0
-72.3303E+0	21.4915E+3	14.1974E-9	49.7144E+0
-72.2540E+0	21.4915E+3	13.8520E-9	51.7745E+0
-72.1777E+0	21.4915E+3	13.6452E-9	51.1859E+0
-72.1013E+0	21.4915E+3	13.6514E-9	53.3818E+0
-72.0250E+0	21.4915E+3	14.1720E-9	54.3738E+0
-71.9486E+0	21.4915E+3	14.3159E-9	53.2108E+0
-71.8723E+0	21.4915E+3	14.0065E-9	58.0451E+0
-71.7960E+0	21.4915E+3	14.1988E-9	50.2573E+0
-71.7196E+0	21.4915E+3	14.2600E-9	51.1260E+0
-71.6433E+0	21.4915E+3	14.2825E-9	53.4704E+0
-71.5669E+0	21.4915E+3	13.9222E-9	51.6317E+0
-71.4906E+0	21.4915E+3	14.4221E-9	54.2273E+0
-71.4143E+0	21.4915E+3	14.6927E-9	54.1893E+0
-71.3379E+0	21.4915E+3	15.1268E-9	52.7671E+0
-71.2616E+0	21.4915E+3	14.1497E-9	51.7011E+0
-71.1852E+0	21.4915E+3	15.3057E-9	52.7571E+0
-71.1089E+0	21.4915E+3	14.1296E-9	53.6577E+0
-71.0326E+0	21.4915E+3	14.2452E-9	54.7055E+0
-70.9562E+0	21.4915E+3	14.1009E-9	51.4595E+0
-70.8799E+0	21.4915E+3	14.5197E-9	58.1291E+0
-70.8035E+0	21.4915E+3	13.4284E-9	55.7632E+0
-70.7272E+0	21.4915E+3	13.7802E-9	59.1707E+0
-70.6509E+0	21.4915E+3	12.6052E-9	52.8216E+0
-70.5745E+0	21.4915E+3	14.1092E-9	51.4927E+0
-70.4982E+0	21.4915E+3	14.0449E-9	54.3729E+0
-70.4218E+0	21.4915E+3	13.9443E-9	53.2678E+0
-70.3455E+0	21.4915E+3	14.6662E-9	56.1842E+0
-70.2692E+0	21.4915E+3	13.8533E-9	55.2593E+0
-70.1928E+0	21.4915E+3	14.3324E-9	55.4023E+0
-70.1165E+0	21.4915E+3	13.7029E-9	57.7247E+0
-70.0401E+0	21.4915E+3	14.4053E-9	57.2696E+0
-69.9638E+0	21.4915E+3	14.9475E-9	54.8505E+0
-69.8875E+0	21.4915E+3	14.3906E-9	55.3499E+0
-69.8111E+0	21.4915E+3	14.2817E-9	51.7367E+0
-69.7348E+0	21.4915E+3	14.5427E-9	60.1603E+0
-69.6584E+0	21.4915E+3	13.8233E-9	52.3195E+0
-69.5821E+0	21.4915E+3	14.6145E-9	57.6308E+0
-69.5058E+0	21.4915E+3	14.4479E-9	57.2983E+0
-69.4294E+0	21.4915E+3	13.7445E-9	54.2386E+0
-69.3531E+0	21.4915E+3	14.2789E-9	58.6076E+0
-69.2767E+0	21.4915E+3	14.4715E-9	53.8011E+0
-69.2004E+0	21.4915E+3	14.1882E-9	59.9088E+0
-69.1241E+0	21.4915E+3	14.3435E-9	60.3826E+0
-69.0477E+0	21.4915E+3	14.0583E-9	53.1253E+0
-68.9714E+0	21.4915E+3	15.1501E-9	57.1075E+0
-68.8951E+0	21.4915E+3	15.2015E-9	43.8721E+0
-68.8187E+0	21.4915E+3	14.6397E-9	59.4107E+0
-68.7424E+0	21.4915E+3	14.6584E-9	57.9518E+0
-68.6660E+0	21.4915E+3	14.5261E-9	56.9269E+0
-68.5897E+0	21.4915E+3	14.2087E-9	59.1064E+0
-68.5134E+0	21.4915E+3	13.5685E-9	55.2884E+0
-68.4370E+0	21.4915E+3	14.5062E-9	56.0898E+0
-68.3607E+0	21.4915E+3	13.7020E-9	57.4488E+0
-68.2843E+0	21.4915E+3	14.4825E-9	60.1357E+0
-68.2080E+0	21.4915E+3	14.2375E-9	62.2074E+0
-68.1317E+0	21.4915E+3	14.3893E-9	57.0216E+0
-68.0553E+0	21.4915E+3	14.1308E-9	56.6780E+0
-67.9790E+0	21.4915E+3	14.1366E-9	56.4597E+0
-67.9026E+0	21.4915E+3	14.0352E-9	57.6458E+0
-67.8263E+0	21.4915E+3	13.8641E-9	55.4683E+0
-67.7500E+0	21.4915E+3	13.9021E-9	54.4693E+0
-67.6736E+0	21.4915E+3	13.5645E-9	56.5266E+0
-67.5973E+0	21.4915E+3	15.1637E-9	60.0230E+0
-67.5209E+0	21.4915E+3	14.7751E-9	52.0216E+0
-67.4446E+0	21.4915E+3	14.7984E-9	55.3415E+0
-67.3683E+0	21.4915E+3	15.0459E-9	59.3751E+0
-67.2919E+0	21.4915E+3	14.9900E-9	64.0116E+0
-67.2156E+0	21.4915E+3	13.5821E-9	60.8597E+0
-67.1392E+0	21.4915E+3	14.7473E-9	59.2117E+0
-67.0629E+0	21.4915E+3	13.2069E-9	58.4226E+0
-66.9866E+0	21.4915E+3	14.7784E-9	56.9415E+0
-66.9102E+0	21.4915E+3	14.3574E-9	58.6900E+0
-66.8339E+0	21.4915E+3	13.6515E-9	51.6791E+0
-66.7575E+0	21.4915E+3	14.1331E-9	58.4371E+0
-66.6812E+0	21.4915E+3	14.8428E-9	56.2234E+0
-66.6049E+0	21.4915E+3	14.0310E-9	61.4832E+0
-66.5285E+0	21.4915E+3	13.8557E-9	60.2939E+0
-66.4522E+0	21.4915E+3	13.8465E-9	59.5788E+0
-66.3758E+0	21.4915E+3	14.1496E-9	58.2948E+0
-66.2995E+0	21.4915E+3	15.1114E-9	56.2055E+0
-66.2232E+0	21.4915E+3	14.8468E-9	59.7628E+0
-66.1468E+0	21.4915E+3	13.7045E-9	61.1386E+0
-66.0705E+0	21.4915E+3	14.8917E-9	57.4799E+0
-65.9941E+0	21.4915E+3	13.8390E-9	50.0212E+0
-65.9178E+0	21.4915E+3	13.7781E-9	60.7379E+0
-65.8415E+0	21.4915E+3	13.4953E-9	58.8327E+0
-65.7651E+0	21.4915E+3	14.5355E-9	53.1884E+0
-65.6888E+0	21.4915E+3	14.9914E-9	54.2033E+0
-65.6124E+0	21.4915E+3	14.1171E-9	56.8508E+0
-65.5361E+0	21.4915E+3	14.0414E-9	57.2980E+0
-65.4598E+0	21.4915E+3	14.1558E-9	58.8867E+0
-65.3834E+0	21.4915E+3	13.6515E-9	58.2525E+0
-65.3071E+0	21.4915E+3	13.8124E-9	56.0861E+0
-65.2307E+0	21.4915E+3	14.5551E-9	60.1949E+0
-65.1544E+0	21.4915E+3	14.2349E-9	59.6207E+0
-65.0781E+0	21.4915E+3	14.8241E-9	53.8934E+0
-65.0017E+0	21.4915E+3	13.2956E-9	61.1962E+0
-64.9254E+0	21.4915E+3	14.2030E-9	65.1238E+0
-64.8490E+0	21.4915E+3	13.5531E-9	60.7515E+0
-64.7727E+0	21.4915E+3	14.5699E-9	69.0974E+0
-64.6964E+0	21.4915E+3	14.8270E-9	60.6851E+0
-64.6200E+0	21.4915E+3	14.6475E-9	59.3613E+0
-64.5437E+0	21.4915E+3	14.1090E-9	64.0460E+0
-64.4673E+0	21.4915E+3	13.9178E-9	57.6324E+0
-64.3910E+0	21.4915E+3	14.3057E-9	57.0636E+0
-64.3147E+0	21.4915E+3	13.5986E-9	59.2066E+0
-64.2383E+0	21.4915E+3	14.5642E-9	59.7510E+0
-64.1620E+0	21.4915E+3	14.0258E-9	62.4879E+0
-64.0856E+0	21.4915E+3	14.3570E-9	59.4107E+0
-64.0093E+0	21.4915E+3	14.9398E-9	62.7698E+0
-63.9330E+0	21.4915E+3	14.1011E-9	61.2683E+0
-63.8566E+0	21.4915E+3	14.8050E-9	60.9703E+0
-63.7803E+0	21.4915E+3	15.1074E-9	59.9876E+0
-63.7039E+0	21.4915E+3	15.0219E-9	61.5612E+0
-63.6276E+0	21.4915E+3	13.7911E-9	58.3540E+0
-63.5513E+0	21.4915E+3	12.7305E-9	61.8870E+0
-63.4749E+0	21.4915E+3	14.3273E-9	66.7781E+0
-63.3986E+0	21.4915E+3	14.9714E-9	60.6349E+0
-63.3223E+0	21.4915E+3	13.6472E-9	59.0704E+0
-63.2459E+0	21.4915E+3	13.5402E-9	59.0952E+0
-63.1696E+0	21.4915E+3	13.7555E-9	60.6276E+0
-63.0932E+0	21.4915E+3	14.1557E-9	64.5033E+0
-63.0169E+0	21.4915E+3	14.2837E-9	61.0395E+0
-62.9406E+0	21.4915E+3	15.0648E-9	59.3894E+0
-62.8642E+0	21.4915E+3	14.9228E-9	68.2433E+0
-62.7879E+0	21.4915E+3	13.9171E-9	60.8698E+0
-62.7115E+0	21.4915E+3	14.6177E-9	61.4970E+0
-62.6352E+0	21.4915E+3	13.2113E-9	65.0743E+0
-62.5589E+0	21.4915E+3	14.6077E-9	63.0678E+0
-62.4825E+0	21.4915E+3	14.7336E-9	64.6556E+0
-62.4062E+0	21.4915E+3	14.0623E-9	60.5447E+0
-62.3298E+0	21.4915E+3	13.9838E-9	59.7324E+0
-62.2535E+0	21.4915E+3	14.8694E-9	60.2022E+0
-62.1772E+0	21.4915E+3	14.2242E-9	69.2052E+0
-62.1008E+0	21.4915E+3	13.3627E-9	62.1430E+0
-62.0245E+0	21.4915E+3	14.1700E-9	60.9904E+0
-61.9481E+0	21.4915E+3	14.4469E-9	62.8016E+0
-61.8718E+0	21.4915E+3	14.6743E-9	62.8924E+0
-61.7955E+0	21.4915E+3	14.3485E-9	62.8276E+0
-61.7191E+0	21.4915E+3	14.8849E-9	59.3707E+0
-61.6428E+0	21.4915E+3	13.8819E-9	55.7325E+0
-61.5664E+0	21.4915E+3	14.2794E-9	62.5587E+0
-61.4901E+0	21.4915E+3	14.0459E-9	61.4215E+0
-61.4138E+0	21.4915E+3	13.3227E-9	59.2128E+0
-61.3374E+0	21.4915E+3	13.7690E-9	60.2300E+0
-61.2611E+0	21.4915E+3	14.8024E-9	66.0805E+0
-61.1847E+0	21.4915E+3	15.3081E-9	57.8065E+0
-61.1084E+0	21.4915E+3	13.8803E-9	64.1356E+0
-61.0321E+0	21.4915E+3	13.9778E-9	64.4202E+0
-60.9557E+0	21.4915E+3	14.1371E-9	64.2329E+0
-60.8794E+0	21.4915E+3	14.5706E-9	62.4245E+0
-60.8030E+0	21.4915E+3	13.7662E-9	62.4571E+0
-60.7267E+0	21.4915E+3	13.6632E-9	63.9082E+0
-60.6504E+0	21.4915E+3	14.6648E-9	62.1128E+0
-60.5740E+0	21.4915E+3	14.1593E-9	67.4088E+0
-60.4977E+0	21.4915E+3	14.9464E-9	68.9683E+0
-60.4213E+0	21.4915E+3	15.1420E-9	65.5469E+0
-60.3450E+0	21.4915E+3	14.3423E-9	65.2595E+0
-60.2687E+0	21.4915E+3	13.7714E-9	63.4295E+0
-60.1923E+0	21.4915E+3	13.6690E-9	63.5421E+0
-60.1160E+0	21.4915E+3	14.0420E-9	65.2271E+0
-60.0396E+0	21.4915E+3	14.4774E-9	72.9513E+0
-59.9633E+0	21.4915E+3	15.2275E-9	64.6257E+0
-59.8870E+0	21.4915E+3	14.7274E-9	59.5265E+0
-59.8106E+0	21.4915E+3	14.8161E-9	63.2484E+0
-59.7343E+0	21.4915E+3	13.9960E-9	73.4920E+0
-59.6579E+0	21.4915E+3	13.8088E-9	64.7032E+0
-59.5816E+0	21.4915E+3	14.1812E-9	60.8464E+0
-59.5053E+0	21.4915E+3	14.0825E-9	68.1727E+0
-59.4289E+0	21.4915E+3	14.5933E-9	60.7702E+0
-59.3526E+0	21.4915E+3	13.8388E-9	65.9361E+0
-59.2762E+0	21.4915E+3	15.0952E-9	68.8249E+0
-59.1999E+0	21.4915E+3	15.1840E-9	66.3973E+0
-59.1236E+0	21.4915E+3	15.0203E-9	71.0649E+0
-59.0472E+0	21.4915E+3	13.8046E-9	74.3169E+0
-58.9709E+0	21.4915E+3	14.7066E-9	67.4609E+0
-58.8945E+0	21.4915E+3	14.9927E-9	62.8626E+0
-58.8182E+0	21.4915E+3	14.7647E-9	58.8946E+0
-58.7419E+0	21.4915E+3	14.3362E-9	70.7354E+0
-58.6655E+0	21.4915E+3	14.1519E-9	63.8079E+0
-58.5892E+0	21.4915E+3	15.0688E-9	66.1427E+0
-58.5128E+0	21.4915E+3	14.6612E-9	64.5363E+0
-58.4365E+0	21.4915E+3	14.8061E-9	61.9926E+0
-58.3602E+0	21.4915E+3	14.7195E-9	70.5844E+0
-58.2838E+0	21.4915E+3	14.0051E-9	68.9848E+0
-58.2075E+0	21.4915E+3	14.6627E-9	66.9938E+0
-58.1311E+0	21.4915E+3	14.6809E-9	65.0627E+0
-58.0548E+0	21.4915E+3	13.4894E-9	66.1987E+0
-57.9785E+0	21.4915E+3	14.4994E-9	75.0577E+0
-57.9021E+0	21.4915E+3	14.6441E-9	71.8176E+0
-57.8258E+0	21.4915E+3	14.9081E-9	65.3651E+0
-57.7495E+0	21.4915E+3	14.3441E-9	66.9743E+0
-57.6731E+0	21.4915E+3	14.5091E-9	67.2089E+0
-57.5968E+0	21.4915E+3	14.2585E-9	69.2641E+0
-57.5204E+0	21.4915E+3	14.8078E-9	70.0106E+0
-57.4441E+0	21.4915E+3	14.3353E-9	68.2901E+0
-57.3678E+0	21.4915E+3	15.0791E-9	73.5107E+0
-57.2914E+0	21.4915E+3	13.8634E-9	70.4914E+0
-57.2151E+0	21.4915E+3	13.9359E-9	73.8650E+0
-57.1387E+0	21.4915E+3	15.4516E-9	72.7648E+0
-57.0624E+0	21.4915E+3	14.9194E-9	68.2870E+0
-56.9861E+0	21.4915E+3	14.4253E-9	73.5284E+0
-56.9097E+0	21.4915E+3	13.7896E-9	64.3023E+0
-56.8334E+0	21.4915E+3	13.7021E-9	73.9930E+0
-56.7570E+0	21.4915E+3	14.3644E-9	71.5684E+0
-56.6807E+0	21.4915E+3	13.7155E-9	67.6505E+0
-56.6044E+0	21.4915E+3	13.7285E-9	65.4376E+0
-56.5280E+0	21.4915E+3	15.1529E-9	68.1818E+0
-56.4517E+0	21.4915E+3	13.8317E-9	68.3570E+0
-56.3753E+0	21.4915E+3	15.3698E-9	71.2048E+0
-56.2990E+0	21.4915E+3	13.6900E-9	71.0602E+0
-56.2227E+0	21.4915E+3	14.3624E-9	70.5538E+0
-56.1463E+0	21.4915E+3	15.1501E-9	73.8584E+0
-56.0700E+0	21.4915E+3	14.5546E-9	70.9136E+0
-55.9936E+0	21.4915E+3	14.8334E-9	72.2085E+0
-55.9173E+0	21.4915E+3	12.7387E-9	71.5595E+0
-55.8410E+0	21.4915E+3	15.1031E-9	73.5786E+0
-55.7646E+0	21.4915E+3	14.2576E-9	79.7504E+0
-55.6883E+0	21.4915E+3	13.5108E-9	73.0286E+0
-55.6119E+0	21.4915E+3	14.1568E-9	72.7153E+0
-55.5356E+0	21.4915E+3	14.5320E-9	73.3389E+0
-55.4593E+0	21.4915E+3	14.4980E-9	74.6597E+0
-55.3829E+0	21.4915E+3	14.3973E-9	77.9817E+0
-55.3066E+0	21.4915E+3	14.3964E-9	73.4806E+0
-55.2302E+0	21.4915E+3	14.6363E-9	74.6077E+0
-55.1539E+0	21.4915E+3	14.7560E-9	71.8501E+0
-55.0776E+0	21.4915E+3	14.3487E-9	74.0814E+0
-55.0012E+0	21.4915E+3	16.2384E-9	79.0570E+0
-54.9249E+0	21.4915E+3	15.0066E-9	70.2083E+0
-54.8485E+0	21.4915E+3	15.8402E-9	69.1910E+0
-54.7722E+0	21.4915E+3	15.0091E-9	78.2908E+0
-54.6959E+0	21.4915E+3	13.7928E-9	73.3707E+0
-54.6195E+0	21.4915E+3	13.4946E-9	82.2596E+0
-54.5432E+0	21.4915E+3	15.5835E-9	73.2274E+0
-54.4668E+0	21.4915E+3	13.1867E-9	69.9970E+0
-54.3905E+0	21.4915E+3	14.6675E-9	68.3424E+0
-54.3142E+0	21.4915E+3	14.4729E-9	81.9555E+0
-54.2378E+0	21.4915E+3	14.1279E-9	78.0582E+0
-54.1615E+0	21.4915E+3	15.6937E-9	75.3522E+0
-54.0851E+0	21.4915E+3	14.8891E-9	77.0347E+0
-54.0088E+0	21.4915E+3	14.6877E-9	75.9893E+0
-53.9325E+0	21.4915E+3	15.5159E-9	72.2926E+0
-53.8561E+0	21.4915E+3	14.4060E-9	78.3378E+0
-53.7798E+0	21.4915E+3	15.0550E-9	76.1506E+0
-53.7034E+0	21.4915E+3	14.8369E-9	77.8958E+0
-53.6271E+0	21.4915E+3	15.4699E-9	75.6901E+0
-53.5508E+0	21.4915E+3	15.2015E-9	72.1198E+0
-53.4744E+0	21.4915E+3	14.0354E-9	74.2611E+0
-53.3981E+0	21.4915E+3	15.5140E-9	79.9016E+0
-53.3217E+0	21.4915E+3	15.1932E-9	72.3072E+0
-53.2454E+0	21.4915E+3	14.7332E-9	78.3163E+0
-53.1691E+0	21.4915E+3	15.5482E-9	79.1435E+0
-53.0927E+0	21.4915E+3	14.5495E-9	74.7513E+0
-53.0164E+0	21.4915E+3	15.8647E-9	79.7884E+0
-52.9400E+0	21.4915E+3	14.0911E-9	78.9407E+0
-52.8637E+0	21.4915E+3	15.2477E-9	79.0062E+0
-52.7874E+0	21.4915E+3	14.6476E-9	67.9792E+0
-52.7110E+0	21.4915E+3	14.9391E-9	75.8236E+0
-52.6347E+0	21.4915E+3	15.3990E-9	72.8221E+0
-52.5583E+0	21.4915E+3	15.4399E-9	76.2696E+0
-52.4820E+0	21.4915E+3	15.4842E-9	77.1582E+0
-52.4057E+0	21.4915E+3	15.6854E-9	82.9092E+0
-52.3293E+0	21.4915E+3	14.1989E-9	71.5651E+0
-52.2530E+0	21.4915E+3	14.9589E-9	81.1992E+0
-52.1767E+0	21.4915E+3	14.1389E-9	82.4125E+0
-52.1003E+0	21.4915E+3	15.9459E-9	82.9882E+0
-52.0240E+0	21.4915E+3	15.4003E-9	80.9667E+0
-51.9476E+0	21.4915E+3	15.0869E-9	86.0539E+0
-51.8713E+0	21.4915E+3	15.3161E-9	77.8314E+0
-51.7950E+0	21.4915E+3	15.0267E-9	76.7226E+0
-51.7186E+0	21.4915E+3	14.9812E-9	80.9481E+0
-51.6423E+0	21.4915E+3	16.1843E-9	76.7713E+0
-51.5659E+0	21.4915E+3	15.1553E-9	80.1582E+0
-51.4896E+0	21.4915E+3	14.8627E-9	82.4629E+0
-51.4133E+0	21.4915E+3	15.7819E-9	82.8959E+0
-51.3369E+0	21.4915E+3	15.3593E-9	77.9999E+0
-51.2606E+0	21.4915E+3	14.6908E-9	81.1428E+0
-51.1842E+0	21.4915E+3	15.1329E-9	82.8326E+0
-51.1079E+0	21.4915E+3	16.1623E-9	78.1224E+0
-51.0316E+0	21.4915E+3	15.5788E-9	84.6028E+0
-50.9552E+0	21.4915E+3	15.6470E-9	77.8428E+0
-50.8789E+0	21.4915E+3	15.0958E-9	85.9812E+0
-50.8025E+0	21.4915E+3	15.6921E-9	82.3819E+0
-50.7262E+0	21.4915E+3	15.9063E-9	83.1896E+0
-50.6499E+0	21.4915E+3	15.0538E-9	79.5245E+0
-50.5735E+0	21.4915E+3	15.3397E-9	79.7652E+0
-50.4972E+0	21.4915E+3	15.0310E-9	76.7353E+0
-50.4208E+0	21.4915E+3	16.1594E-9	83.9833E+0
-50.3445E+0	21.4915E+3	15.7230E-9	77.6573E+0
-50.2682E+0	21.4915E+3	15.7685E-9	83.7931E+0
-50.1918E+0	21.4915E+3	15.2650E-9	80.6753E+0
-50.1155E+0	21.4915E+3	16.0919E-9	77.0416E+0
-50.0391E+0	21.4915E+3	16.1888E-9	79.8986E+0
-49.9628E+0	21.4915E+3	16.5799E-9	80.8994E+0
-49.8865E+0	21.4915E+3	14.5998E-9	79.7262E+0
-49.8101E+0	21.4915E+3	16.4098E-9	84.6934E+0
-49.7338E+0	21.4915E+3	16.2919E-9	82.6555E+0
-49.6574E+0	21.4915E+3	16.1791E-9	84.2128E+0
-49.5811E+0	21.4915E+3	16.4073E-9	81.3952E+0
-49.5048E+0	21.4915E+3	15.6225E-9	86.5430E+0
-49.4284E+0	21.4915E+3	15.6677E-9	74.1941E+0
-49.3521E+0	21.4915E+3	15.8363E-9	79.8871E+0
-49.2757E+0	21.4915E+3	15.5364E-9	84.7931E+0
-49.1994E+0	21.4915E+3	16.7063E-9	87.2265E+0
-49.1231E+0	21.4915E+3	16.0161E-9	80.8307E+0
-49.0467E+0	21.4915E+3	15.1820E-9	83.8754E+0
-48.9704E+0	21.4915E+3	15.8691E-9	85.1087E+0
-48.8940E+0	21.4915E+3	16.5079E-9	82.0354E+0
-48.8177E+0	21.4915E+3	15.4316E-9	81.0339E+0
-48.7414E+0	21.4915E+3	16.3346E-9	77.7692E+0
-48.6650E+0	21.4915E+3	15.6784E-9	83.5169E+0
-48.5887E+0	21.4915E+3	15.0870E-9	86.0925E+0
-48.5123E+0	21.4915E+3	16.6449E-9	85.0617E+0
-48.4360E+0	21.4915E+3	15.0556E-9	82.7472E+0
-48.3597E+0	21.4915E+3	16.9931E-9	87.0771E+0
-48.2833E+0	21.4915E+3	14.9956E-9	87.7805E+0
-48.2070E+0	21.4915E+3	16.4080E-9	86.5234E+0
-48.1306E+0	21.4915E+3	14.6555E-9	88.7699E+0
-48.0543E+0	21.4915E+3	16.2508E-9	83.5082E+0
-47.9780E+0	21.4915E+3	17.0458E-9	86.3158E+0
-47.9016E+0	21.4915E+3	16.1805E-9	83.9847E+0
-47.8253E+0	21.4915E+3	16.6743E-9	91.2203E+0
-47.7489E+0	21.4915E+3	16.3769E-9	81.3824E+0
-47.6726E+0	21.4915E+3	15.8443E-9	85.1602E+0
-47.5963E+0	21.4915E+3	16.0944E-9	86.9818E+0
-47.5199E+0	21.4915E+3	16.0080E-9	84.4151E+0
-47.4436E+0	21.4915E+3	16.8925E-9	85.2847E+0
-47.3672E+0	21.4915E+3	16.4747E-9	89.7547E+0
-47.2909E+0	21.4915E+3	16.1519E-9	91.0136E+0
-47.2146E+0	21.4915E+3	17.1078E-9	88.1528E+0
-47.1382E+0	21.4915E+3	15.8510E-9	85.9352E+0
-47.0619E+0	21.4915E+3	15.8150E-9	89.6349E+0
-46.9855E+0	21.4915E+3	16.3262E-9	85.5028E+0
-46.9092E+0	21.4915E+3	16.8081E-9	83.8645E+0
-46.8329E+0	21.4915E+3	16.5840E-9	84.1513E+0
-46.7565E+0	21.4915E+3	15.7234E-9	89.5747E+0
-46.6802E+0	21.4915E+3	17.7914E-9	89.7160E+0
-46.6039E+0	21.4915E+3	17.2243E-9	89.7394E+0
-46.5275E+0	21.4915E+3	16.5810E-9	86.8297E+0
-46.4512E+0	21.4915E+3	16.6417E-9	90.4981E+0
-46.3748E+0	21.4915E+3	17.0492E-9	92.6265E+0
-46.2985E+0	21.4915E+3	17.8440E-9	80.5267E+0
-46.2222E+0	21.4915E+3	18.3167E-9	89.4521E+0
-46.1458E+0	21.4915E+3	17.1940E-9	90.3687E+0
-46.0695E+0	21.4915E+3	16.7799E-9	92.0405E+0
-45.9931E+0	21.4915E+3	17.2231E-9	90.2800E+0
-45.9168E+0	21.4915E+3	17.1176E-9	93.4507E+0
-45.8405E+0	21.4915E+3	17.7316E-9	90.6580E+0
-45.7641E+0	21.4915E+3	16.9948E-9	93.1968E+0
-45.6878E+0	21.4915E+3	16.9854E-9	88.7475E+0
-45.6114E+0	21.4915E+3	15.7911E-9	83.9458E+0
-45.5351E+0	21.4915E+3	17.1251E-9	89.6213E+0
-45.4588E+0	21.4915E+3	18.8946E-9	87.7838E+0
-45.3824E+0	21.4915E+3	18.2407E-9	88.7629E+0
-45.3061E+0	21.4915E+3	17.9527E-9	88.2265E+0
-45.2297E+0	21.4915E+3	18.1275E-9	90.1068E+0
-45.1534E+0	21.4915E+3	16.0515E-9	93.8787E+0
-45.0771E+0	21.4915E+3	17.4764E-9	91.4895E+0
-45.0007E+0	21.4915E+3	17.9096E-9	90.0035E+0
-44.9244E+0	21.4915E+3	16.7839E-9	92.7424E+0
-44.8480E+0	21.4915E+3	17.1891E-9	90.5870E+0
-44.7717E+0	21.4915E+3	18.3819E-9	94.1253E+0
-44.6954E+0	21.4915E+3	18.9253E-9	90.5731E+0
-44.6190E+0	21.4915E+3	17.7833E-9	95.4742E+0
-44.5427E+0	21.4915E+3	17.1364E-9	91.9162E+0
-44.4663E+0	21.4915E+3	16.4897E-9	94.6339E+0
-44.3900E+0	21.4915E+3	18.3656E-9	92.9114E+0
-44.3137E+0	21.4915E+3	18.2289E-9	91.2647E+0
-44.2373E+0	21.4915E+3	18.5483E-9	91.5565E+0
-44.1610E+0	21.4915E+3	17.5814E-9	99.2895E+0
-44.0846E+0	21.4915E+3	18.1215E-9	93.4525E+0
-44.0083E+0	21.4915E+3	17.9143E-9	90.7042E+0
-43.9320E+0	21.4915E+3	18.2617E-9	91.5347E+0
-43.8556E+0	21.4915E+3	18.2789E-9	97.0438E+0
-43.7793E+0	21.4915E+3	17.0207E-9	96.1907E+0
-43.7029E+0	21.4915E+3	18.4871E-9	96.3909E+0
-43.6266E+0	21.4915E+3	18.2262E-9	88.9885E+0
-43.5503E+0	21.4915E+3	16.8903E-9	89.5831E+0
-43.4739E+0	21.4915E+3	17.9746E-9	89.5126E+0
-43.3976E+0	21.4915E+3	18.0927E-9	93.0231E+0
-43.3212E+0	21.4915E+3	18.4664E-9	94.9378E+0
-43.2449E+0	21.4915E+3	17.3728E-9	91.1427E+0
-43.1686E+0	21.4915E+3	18.7017E-9	92.7488E+0
-43.0922E+0	21.4915E+3	17.2450E-9	90.0351E+0
-43.0159E+0	21.4915E+3	17.3529E-9	90.9490E+0
-42.9395E+0	21.4915E+3	17.8149E-9	92.7962E+0
-42.8632E+0	21.4915E+3	18.0516E-9	94.6605E+0
-42.7869E+0	21.4915E+3	18.3099E-9	96.2462E+0
-42.7105E+0	21.4915E+3	17.5935E-9	97.7413E+0
-42.6342E+0	21.4915E+3	16.9040E-9	92.6482E+0
-42.5578E+0	21.4915E+3	19.1984E-9	96.9925E+0
-42.4815E+0	21.4915E+3	18.5200E-9	96.9391E+0
-42.4052E+0	21.4915E+3	17.9368E-9	94.8630E+0
-42.3288E+0	21.4915E+3	17.4217E-9	91.9289E+0
-42.2525E+0	21.4915E+3	17.2119E-9	95.2449E+0
-42.1761E+0	21.4915E+3	18.2416E-9	95.4558E+0
-42.0998E+0	21.4915E+3	18.5391E-9	97.1846E+0
-42.0235E+0	21.4915E+3	17.7702E-9	96.9949E+0
-41.9471E+0	21.4915E+3	18.5457E-9	94.3936E+0
-41.8708E+0	21.4915E+3	18.5358E-9	96.0741E+0
-41.7944E+0	21.4915E+3	18.5032E-9	95.5976E+0
-41.7181E+0	21.4915E+3	19.2470E-9	97.8485E+0
-41.6418E+0	21.4915E+3	18.6715E-9	96.6572E+0
-41.5654E+0	21.4915E+3	18.5804E-9	97.4692E+0
-41.4891E+0	21.4915E+3	18.0575E-9	97.7133E+0
-41.4128E+0	21.4915E+3	18.5528E-9	95.4459E+0
-41.3364E+0	21.4915E+3	18.8530E-9	97.6110E+0
-41.2601E+0	21.4915E+3	19.2636E-9	104.253E+0
-41.1837E+0	21.4915E+3	18.1414E-9	94.2027E+0
-41.1074E+0	21.4915E+3	19.9306E-9	98.5187E+0
-41.0311E+0	21.4915E+3	18.1191E-9	91.3499E+0
-40.9547E+0	21.4915E+3	20.5408E-9	96.2269E+0
-40.8784E+0	21.4915E+3	19.2202E-9	97.2866E+0
-40.8020E+0	21.4915E+3	17.8398E-9	93.0840E+0
-40.7257E+0	21.4915E+3	19.1005E-9	95.8547E+0
-40.6494E+0	21.4915E+3	18.8414E-9	100.790E+0
-40.5730E+0	21.4915E+3	19.6441E-9	96.7959E+0
-40.4967E+0	21.4915E+3	19.7824E-9	95.2894E+0
-40.4203E+0	21.4915E+3	18.2377E-9	97.0854E+0
-40.3440E+0	21.4915E+3	19.3480E-9	99.8887E+0
-40.2677E+0	21.4915E+3	19.7804E-9	95.8704E+0
-40.1913E+0	21.4915E+3	19.8543E-9	99.6407E+0
-40.1150E+0	21.4915E+3	19.3715E-9	103.361E+0
-40.0386E+0	21.4915E+3	19.8048E-9	100.265E+0
-39.9623E+0	21.4915E+3	21.1628E-9	99.4174E+0
-39.8860E+0	21.4915E+3	20.9409E-9	102.625E+0
-39.8096E+0	21.4915E+3	19.5900E-9	101.570E+0
-39.7333E+0	21.4915E+3	19.9462E-9	97.4684E+0
-39.6569E+0	21.4915E+3	19.8501E-9	98.8429E+0
-39.5806E+0	21.4915E+3	20.9176E-9	99.1068E+0
-39.5043E+0	21.4915E+3	19.7392E-9	100.921E+0
-39.4279E+0	21.4915E+3	20.8784E-9	100.679E+0
-39.3516E+0	21.4915E+3	20.1803E-9	99.3747E+0
-39.2752E+0	21.4915E+3	20.6205E-9	101.838E+0
-39.1989E+0	21.4915E+3	20.4679E-9	101.843E+0
-39.1226E+0	21.4915E+3	20.2471E-9	102.049E+0
-39.0462E+0	21.4915E+3	20.8720E-9	102.238E+0
-38.9699E+0	21.4915E+3	20.8129E-9	99.7865E+0
-38.8935E+0	21.4915E+3	20.6273E-9	107.265E+0
-38.8172E+0	21.4915E+3	21.6582E-9	102.487E+0
-38.7409E+0	21.4915E+3	19.5407E-9	97.9491E+0
-38.6645E+0	21.4915E+3	20.4984E-9	100.629E+0
-38.5882E+0	21.4915E+3	19.8863E-9	103.623E+0
-38.5118E+0	21.4915E+3	21.7224E-9	100.404E+0
-38.4355E+0	21.4915E+3	20.6425E-9	103.579E+0
-38.3592E+0	21.4915E+3	19.5668E-9	100.993E+0
-38.2828E+0	21.4915E+3	20.6901E-9	98.9178E+0
-38.2065E+0	21.4915E+3	20.8387E-9	104.310E+0
-38.1301E+0	21.4915E+3	20.7881E-9	102.606E+0
-38.0538E+0	21.4915E+3	21.2678E-9	103.572E+0
-37.9775E+0	21.4915E+3	22.2792E-9	100.203E+0
-37.9011E+0	21.4915E+3	20.8414E-9	104.386E+0
-37.8248E+0	21.4915E+3	20.7913E-9	103.758E+0
-37.7484E+0	21.4915E+3	22.1227E-9	99.2005E+0
-37.6721E+0	21.4915E+3	20.5559E-9	99.4715E+0
-37.5958E+0	21.4915E+3	20.8136E-9	99.1305E+0
-37.5194E+0	21.4915E+3	22.4424E-9	102.984E+0
-37.4431E+0	21.4915E+3	20.6833E-9	107.849E+0
-37.3667E+0	21.4915E+3	20.5795E-9	98.6811E+0
-37.2904E+0	21.4915E+3	21.1291E-9	104.732E+0
-37.2141E+0	21.4915E+3	21.4456E-9	101.395E+0
-37.1377E+0	21.4915E+3	20.8373E-9	103.469E+0
-37.0614E+0	21.4915E+3	22.5353E-9	106.011E+0
-36.9850E+0	21.4915E+3	21.1825E-9	103.891E+0
-36.9087E+0	21.4915E+3	22.4885E-9	107.598E+0
-36.8324E+0	21.4915E+3	23.0190E-9	97.1160E+0
-36.7560E+0	21.4915E+3	22.5841E-9	102.879E+0
-36.6797E+0	21.4915E+3	21.8753E-9	104.619E+0
-36.6033E+0	21.4915E+3	22.7815E-9	105.819E+0
-36.5270E+0	21.4915E+3	21.8395E-9	104.578E+0
-36.4507E+0	21.4915E+3	23.2594E-9	104.386E+0
-36.3743E+0	21.4915E+3	22.5337E-9	101.458E+0
-36.2980E+0	21.4915E+3	23.3645E-9	104.088E+0
-36.2216E+0	21.4915E+3	23.1496E-9	105.400E+0
-36.1453E+0	21.4915E+3	23.4505E-9	102.866E+0
-36.0690E+0	21.4915E+3	23.6259E-9	104.058E+0
-35.9926E+0	21.4915E+3	24.1370E-9	103.656E+0
-35.9163E+0	21.4915E+3	23.7200E-9	105.869E+0
-35.8400E+0	21.4915E+3	22.3374E-9	105.530E+0
-35.7636E+0	21.4915E+3	24.8713E-9	107.033E+0
-35.6873E+0	21.4915E+3	23.2873E-9	106.253E+0
-35.6109E+0	21.4915E+3	22.8912E-9	106.473E+0
-35.5346E+0	21.4915E+3	23.8496E-9	105.059E+0
-35.4583E+0	21.4915E+3	24.3459E-9	106.569E+0
-35.3819E+0	21.4915E+3	23.9549E-9	104.127E+0
-35.3056E+0	21.4915E+3	23.1049E-9	106.211E+0
-35.2292E+0	21.4915E+3	23.3140E-9	106.671E+0
-35.1529E+0	21.4915E+3	24.7383E-9	102.524E+0
-35.0766E+0	21.4915E+3	23.8667E-9	103.118E+0
-35.0002E+0	21.4915E+3	25.1749E-9	105.586E+0
-34.9239E+0	21.4915E+3	24.7635E-9	107.585E+0
-34.8475E+0	21.4915E+3	24.4170E-9	107.509E+0
-34.7712E+0	21.4915E+3	26.5386E-9	108.437E+0
-34.6949E+0	21.4915E+3	25.2418E-9	105.039E+0
-34.6185E+0	21.4915E+3	24.2492E-9	106.381E+0
-34.5422E+0	21.4915E+3	25.0440E-9	107.378E+0
-34.4658E+0	21.4915E+3	24.6729E-9	107.495E+0
-34.3895E+0	21.4915E+3	24.7850E-9	106.126E+0
-34.3132E+0	21.4915E+3	26.3371E-9	105.215E+0
-34.2368E+0	21.4915E+3	24.8155E-9	104.487E+0
-34.1605E+0	21.4915E+3	26.0278E-9	106.279E+0
-34.0841E+0	21.4915E+3	26.3028E-9	107.775E+0
-34.0078E+0	21.4915E+3	24.9512E-9	109.638E+0
-33.9315E+0	21.4915E+3	26.5906E-9	107.128E+0
-33.8551E+0	21.4915E+3	25.7541E-9	106.744E+0
-33.7788E+0	21.4915E+3	26.8312E-9	107.581E+0
-33.7024E+0	21.4915E+3	27.1456E-9	107.320E+0
-33.6261E+0	21.4915E+3	27.4616E-9	106.400E+0
-33.5498E+0	21.4915E+3	27.1287E-9	109.168E+0
-33.4734E+0	21.4915E+3	27.2869E-9	108.235E+0
-33.3971E+0	21.4915E+3	27.2104E-9	108.366E+0
-33.3207E+0	21.4915E+3	27.5680E-9	108.337E+0
-33.2444E+0	21.4915E+3	27.2814E-9	111.220E+0
-33.1681E+0	21.4915E+3	29.2756E-9	108.170E+0
-33.0917E+0	21.4915E+3	29.2994E-9	109.480E+0
-33.0154E+0	21.4915E+3	28.9175E-9	107.397E+0
-32.9390E+0	21.4915E+3	28.8724E-9	106.898E+0
-32.8627E+0	21.4915E+3	28.6203E-9	105.092E+0
-32.7864E+0	21.4915E+3	28.4093E-9	106.740E+0
-32.7100E+0	21.4915E+3	28.3439E-9	108.660E+0
-32.6337E+0	21.4915E+3	29.4148E-9	107.575E+0
-32.5573E+0	21.4915E+3	27.2370E-9	104.414E+0
-32.4810E+0	21.4915E+3	30.3722E-9	110.139E+0
-32.4047E+0	21.4915E+3	29.9295E-9	108.255E+0
-32.3283E+0	21.4915E+3	29.1877E-9	107.727E+0
-32.2520E+0	21.4915E+3	28.7664E-9	108.843E+0
-32.1756E+0	21.4915E+3	30.0669E-9	107.348E+0
-32.0993E+0	21.4915E+3	29.3901E-9	110.447E+0
-32.0230E+0	21.4915E+3	29.6034E-9	107.906E+0
-31.9466E+0	21.4915E+3	29.8325E-9	106.438E+0
-31.8703E+0	21.4915E+3	29.1495E-9	110.384E+0
-31.7940E+0	21.4915E+3	29.8228E-9	109.778E+0
-31.7176E+0	21.4915E+3	31.6978E-9	109.545E+0
-31.6413E+0	21.4915E+3	30.3754E-9	106.814E+0
-31.5649E+0	21.4915E+3	30.3858E-9	109.739E+0
-31.4886E+0	21.4915E+3	31.2276E-9	108.145E+0
-31.4123E+0	21.4915E+3	31.6005E-9	108.653E+0
-31.3359E+0	21.4915E+3	28.9567E-9	108.091E+0
-31.2596E+0	21.4915E+3	30.9777E-9	111.685E+0
-31.1832E+0	21.4915E+3	31.2175E-9	110.878E+0
-31.1069E+0	21.4915E+3	31.4431E-9	112.789E+0
-31.0306E+0	21.4915E+3	31.9559E-9	108.587E+0
-30.9542E+0	21.4915E+3	32.1864E-9	108.760E+0
-30.8779E+0	21.4915E+3	32.3920E-9	109.836E+0
-30.8016E+0	21.4915E+3	31.9112E-9	110.849E+0
-30.7252E+0	21.4915E+3	32.0023E-9	112.367E+0
-30.6489E+0	21.4915E+3	32.9340E-9	107.894E+0
-30.5725E+0	21.4915E+3	33.6778E-9	108.368E+0
-30.4962E+0	21.4915E+3	32.1200E-9	109.175E+0
-30.4199E+0	21.4915E+3	33.5365E-9	106.934E+0
-30.3435E+0	21.4915E+3	33.9377E-9	111.876E+0
-30.2672E+0	21.4915E+3	34.9128E-9	108.926E+0
-30.1909E+0	21.4915E+3	33.0631E-9	112.330E+0
-30.1145E+0	21.4915E+3	33.4061E-9	109.378E+0
-30.0382E+0	21.4915E+3	35.2021E-9	107.577E+0
-29.9618E+0	21.4915E+3	33.8839E-9	110.689E+0
-29.8855E+0	21.4915E+3	33.7534E-9	110.757E+0
-29.8092E+0	21.4915E+3	35.2902E-9	106.936E+0
-29.7328E+0	21.4915E+3	34.2338E-9	106.814E+0
-29.6565E+0	21.4915E+3	35.6292E-9	108.722E+0
-29.5802E+0	21.4915E+3	34.8784E-9	107.074E+0
-29.5038E+0	21.4915E+3	36.0927E-9	109.303E+0
-29.4275E+0	21.4915E+3	35.4381E-9	107.244E+0
-29.3511E+0	21.4915E+3	36.1716E-9	111.118E+0
-29.2748E+0	21.4915E+3	36.6013E-9	111.145E+0
-29.1985E+0	21.4915E+3	36.7839E-9	108.139E+0
-29.1221E+0	21.4915E+3	37.2860E-9	110.260E+0
-29.0458E+0	21.4915E+3	37.7991E-9	107.916E+0
-28.9695E+0	21.4915E+3	39.1045E-9	108.580E+0
-28.8931E+0	21.4915E+3	37.2094E-9	110.792E+0
-28.8168E+0	21.4915E+3	38.1727E-9	109.826E+0
-28.7404E+0	21.4915E+3	35.9714E-9	107.403E+0
-28.6641E+0	21.4915E+3	38.3354E-9	109.651E+0
-28.5878E+0	21.4915E+3	37.1008E-9	110.423E+0
-28.5114E+0	21.4915E+3	39.7378E-9	110.108E+0
-28.4351E+0	21.4915E+3	38.4558E-9	109.520E+0
-28.3587E+0	21.4915E+3	37.6701E-9	110.208E+0
-28.2824E+0	21.4915E+3	39.2361E-9	110.521E+0
-28.2061E+0	21.4915E+3	39.6935E-9	111.814E+0
-28.1297E+0	21.4915E+3	39.5180E-9	110.411E+0
-28.0534E+0	21.4915E+3	41.5352E-9	107.883E+0
-27.9771E+0	21.4915E+3	40.6704E-9	109.658E+0
-27.9007E+0	21.4915E+3	41.1289E-9	110.459E+0
-27.8244E+0	21.4915E+3	39.9823E-9	109.720E+0
-27.7480E+0	21.4915E+3	41.1934E-9	108.468E+0
-27.6717E+0	21.4915E+3	40.5645E-9	110.749E+0
-27.5954E+0	21.4915E+3	41.5302E-9	110.496E+0
-27.5190E+0	21.4915E+3	42.0138E-9	108.342E+0
-27.4427E+0	21.4915E+3	41.4644E-9	110.052E+0
-27.3664E+0	21.4915E+3	42.3493E-9	106.933E+0
-27.2900E+0	21.4915E+3	40.7199E-9	109.175E+0
-27.2137E+0	21.4915E+3	42.9388E-9	108.842E+0
-27.1373E+0	21.4915E+3	41.5159E-9	106.934E+0
-27.0610E+0	21.4915E+3	43.1366E-9	110.378E+0
-26.9847E+0	21.4915E+3	42.7282E-9	106.883E+0
-26.9083E+0	21.4915E+3	43.3615E-9	108.742E+0
-26.8320E+0	21.4915E+3	45.7046E-9	109.096E+0
-26.7557E+0	21.4915E+3	43.9638E-9	106.559E+0
-26.6793E+0	21.4915E+3	45.3164E-9	105.733E+0
-26.6030E+0	21.4915E+3	46.8607E-9	106.927E+0
-26.5266E+0	21.4915E+3	45.1682E-9	106.089E+0
-26.4503E+0	21.4915E+3	47.8620E-9	106.374E+0
-26.3740E+0	21.4915E+3	46.4569E-9	106.713E+0
-26.2976E+0	21.4915E+3	47.7449E-9	107.133E+0
-26.2213E+0	21.4915E+3	46.6317E-9	107.645E+0
-26.1450E+0	21.4915E+3	49.1936E-9	105.292E+0
-26.0686E+0	21.4915E+3	48.5372E-9	105.983E+0
-25.9923E+0	21.4915E+3	48.7513E-9	105.861E+0
-25.9159E+0	21.4915E+3	48.6912E-9	104.857E+0
-25.8396E+0	21.4915E+3	49.9125E-9	105.786E+0
-25.7633E+0	21.4915E+3	48.8179E-9	104.524E+0
-25.6869E+0	21.4915E+3	51.7014E-9	105.185E+0
-25.6106E+0	21.4915E+3	50.8087E-9	103.983E+0
-25.5343E+0	21.4915E+3	51.2375E-9	106.247E+0
-25.4579E+0	21.4915E+3	52.2112E-9	102.860E+0
-25.3816E+0	21.4915E+3	52.9171E-9	102.489E+0
-25.3052E+0	21.4915E+3	53.7522E-9	104.221E+0
-25.2289E+0	21.4915E+3	51.5158E-9	102.982E+0
-25.1526E+0	21.4915E+3	54.2413E-9	100.130E+0
-25.0762E+0	21.4915E+3	53.9443E-9	102.617E+0
-24.9999E+0	21.4915E+3	54.4677E-9	102.202E+0
-24.9235E+0	21.4915E+3	53.8525E-9	103.645E+0
-24.8472E+0	21.4915E+3	55.5593E-9	103.123E+0
-24.7709E+0	21.4915E+3	57.0203E-9	101.935E+0
-24.6945E+0	21.4915E+3	56.1747E-9	102.916E+0
-24.6182E+0	21.4915E+3	57.4025E-9	100.434E+0
-24.5419E+0	21.4915E+3	56.1621E-9	101.551E+0
-24.4655E+0	21.4915E+3	57.5818E-9	100.316E+0
-24.3892E+0	21.4915E+3	58.2080E-9	100.956E+0
-24.3128E+0	21.4915E+3	56.7237E-9	100.924E+0
-24.2365E+0	21.4915E+3	56.5833E-9	100.737E+0
-24.1602E+0	21.4915E+3	58.1817E-9	99.7300E+0
-24.0838E+0	21.4915E+3	57.7287E-9	100.323E+0
-24.0075E+0	21.4915E+3	60.3355E-9	100.361E+0
-23.9312E+0	21.4915E+3	60.2160E-9	99.5972E+0
-23.8548E+0	21.4915E+3	61.3514E-9	98.9804E+0
-23.7785E+0	21.4915E+3	61.5396E-9	99.6287E+0
-23.7021E+0	21.4915E+3	60.0026E-9	99.4751E+0
-23.6258E+0	21.4915E+3	61.7844E-9	98.8909E+0
-23.5495E+0	21.4915E+3	62.1149E-9	98.4697E+0
-23.4731E+0	21.4915E+3	63.3029E-9	96.7876E+0
-23.3968E+0	21.4915E+3	62.7115E-9	98.2353E+0
-23.3205E+0	21.4915E+3	63.6763E-9	96.0409E+0
-23.2441E+0	21.4915E+3	64.3386E-9	95.7651E+0
-23.1678E+0	21.4915E+3	65.5733E-9	96.8060E+0
-23.0914E+0	21.4915E+3	64.3201E-9	96.1032E+0
-23.0151E+0	21.4915E+3	65.1158E-9	95.3270E+0
-22.9388E+0	21.4915E+3	66.4691E-9	94.4590E+0
-22.8624E+0	21.4915E+3	66.1559E-9	95.7753E+0
-22.7861E+0	21.4915E+3	65.0756E-9	95.3938E+0
-22.7098E+0	21.4915E+3	65.4663E-9	94.1143E+0
-22.6334E+0	21.4915E+3	67.5394E-9	93.3503E+0
-22.5571E+0	21.4915E+3	68.4863E-9	93.2075E+0
-22.4807E+0	21.4915E+3	69.0784E-9	92.4205E+0
-22.4044E+0	21.4915E+3	66.1254E-9	91.9235E+0
-22.3281E+0	21.4915E+3	69.4020E-9	93.4804E+0
-22.2517E+0	21.4915E+3	69.4613E-9	91.7347E+0
-22.1754E+0	21.4915E+3	69.5501E-9	91.1211E+0
-22.0990E+0	21.4915E+3	70.8400E-9	90.7740E+0
-22.0227E+0	21.4915E+3	69.6357E-9	91.5874E+0
-21.9464E+0	21.4915E+3	72.1022E-9	90.3741E+0
-21.8700E+0	21.4915E+3	69.6411E-9	91.8569E+0
-21.7937E+0	21.4915E+3	69.8548E-9	90.6171E+0
-21.7174E+0	21.4915E+3	70.8785E-9	90.2914E+0
-21.6410E+0	21.4915E+3	72.6767E-9	88.1831E+0
-21.5647E+0	21.4915E+3	74.7238E-9	89.0830E+0
-21.4883E+0	21.4915E+3	76.0776E-9	88.3365E+0
-21.4120E+0	21.4915E+3	71.8198E-9	88.7151E+0
-21.3357E+0	21.4915E+3	75.6751E-9	88.9672E+0
-21.2593E+0	21.4915E+3	77.1233E-9	87.5936E+0
-21.1830E+0	21.4915E+3	76.5925E-9	86.9325E+0
-21.1067E+0	21.4915E+3	72.4146E-9	85.0386E+0
-21.0303E+0	21.4915E+3	78.5213E-9	84.5465E+0
-20.9540E+0	21.4915E+3	76.8301E-9	82.8775E+0
-20.8776E+0	21.4915E+3	76.1926E-9	84.5968E+0
-20.8013E+0	21.4915E+3	77.8476E-9	82.2054E+0
-20.7250E+0	21.4915E+3	76.4741E-9	81.7169E+0
-20.6486E+0	21.4915E+3	78.2864E-9	80.5362E+0
-20.5723E+0	21.4915E+3	78.1907E-9	80.9565E+0
-20.4960E+0	21.4915E+3	80.0197E-9	81.4450E+0
-20.4196E+0	21.4915E+3	80.0133E-9	81.9597E+0
-20.3433E+0	21.4915E+3	76.2079E-9	80.4524E+0
-20.2669E+0	21.4915E+3	80.6158E-9	79.6340E+0
-20.1906E+0	21.4915E+3	77.4461E-9	80.7160E+0
-20.1143E+0	21.4915E+3	80.0800E-9	80.6108E+0
-20.0379E+0	21.4915E+3	81.2085E-9	79.2576E+0
-19.9616E+0	21.4915E+3	80.7660E-9	78.6561E+0
-19.8853E+0	21.4915E+3	81.5816E-9	79.5028E+0
-19.8089E+0	21.4915E+3	81.5271E-9	77.7806E+0
-19.7326E+0	21.4915E+3	82.2973E-9	77.3406E+0
-19.6562E+0	21.4915E+3	81.3936E-9	76.3396E+0
-19.5799E+0	21.4915E+3	82.9926E-9	74.8948E+0
-19.5036E+0	21.4915E+3	82.0943E-9	74.9153E+0
-19.4272E+0	21.4915E+3	81.9053E-9	74.5801E+0
-19.3509E+0	21.4915E+3	82.6989E-9	74.1485E+0
-19.2745E+0	21.4915E+3	84.9532E-9	73.2660E+0
-19.1982E+0	21.4915E+3	83.8566E-9	74.7503E+0
-19.1219E+0	21.4915E+3	84.7726E-9	70.8223E+0
-19.0455E+0	21.4915E+3	84.3871E-9	70.6878E+0
-18.9692E+0	21.4915E+3	83.4679E-9	71.3752E+0
-18.8929E+0	21.4915E+3	82.1727E-9	70.5398E+0
-18.8165E+0	21.4915E+3	86.0740E-9	71.1667E+0
-18.7402E+0	21.4915E+3	84.5281E-9	70.0872E+0
-18.6638E+0	21.4915E+3	83.1938E-9	69.4004E+0
-18.5875E+0	21.4915E+3	84.3611E-9	68.7154E+0
-18.5112E+0	21.4915E+3	85.3161E-9	66.8472E+0
-18.4348E+0	21.4915E+3	86.2096E-9	68.3056E+0
-18.3585E+0	21.4915E+3	84.8567E-9	66.0556E+0
-18.2822E+0	21.4915E+3	86.1881E-9	66.1539E+0
-18.2058E+0	21.4915E+3	86.1501E-9	65.1995E+0
-18.1295E+0	21.4915E+3	85.4515E-9	65.1664E+0
-18.0531E+0	21.4915E+3	88.1620E-9	65.3793E+0
-17.9768E+0	21.4915E+3	86.9742E-9	63.8671E+0
-17.9005E+0	21.4915E+3	86.5385E-9	63.3415E+0
-17.8241E+0	21.4915E+3	86.5298E-9	63.2236E+0
-17.7478E+0	21.4915E+3	87.2014E-9	63.0258E+0
-17.6715E+0	21.4915E+3	87.0789E-9	61.2513E+0
-17.5951E+0	21.4915E+3	85.8641E-9	60.1420E+0
-17.5188E+0	21.4915E+3	88.2419E-9	60.9158E+0
-17.4424E+0	21.4915E+3	85.6415E-9	59.6592E+0
-17.3661E+0	21.4915E+3	87.9873E-9	59.0035E+0
-17.2898E+0	21.4915E+3	86.6099E-9	59.1738E+0
-17.2134E+0	21.4915E+3	87.2430E-9	55.6925E+0
-17.1371E+0	21.4915E+3	87.3330E-9	56.8843E+0
-17.0608E+0	21.4915E+3	86.0848E-9	55.9726E+0
-16.9844E+0	21.4915E+3	85.5986E-9	55.7515E+0
-16.9081E+0	21.4915E+3	86.7316E-9	57.2027E+0
-16.8317E+0	21.4915E+3	87.0150E-9	56.0098E+0
-16.7554E+0	21.4915E+3	87.3754E-9	55.2105E+0
-16.6791E+0	21.4915E+3	86.4525E-9	56.0824E+0
-16.6027E+0	21.4915E+3	85.9794E-9	52.8097E+0
-16.5264E+0	21.4915E+3	86.2928E-9	53.5920E+0
-16.4501E+0	21.4915E+3	86.9786E-9	52.3271E+0
-16.3737E+0	21.4915E+3	85.4420E-9	51.7597E+0
-16.2974E+0	21.4915E+3	85.3636E-9	51.3705E+0
-16.2210E+0	21.4915E+3	86.4077E-9	51.3667E+0
-16.1447E+0	21.4915E+3	86.3319E-9	50.8616E+0
-16.0684E+0	21.4915E+3	86.6842E-9	50.9821E+0
-15.9920E+0	21.4915E+3	86.2265E-9	50.0369E+0
-15.9157E+0	21.4915E+3	86.7049E-9	49.8605E+0
-15.8393E+0	21.4915E+3	85.1130E-9	48.9554E+0
-15.7630E+0	21.4915E+3	85.7079E-9	48.8042E+0
-15.6867E+0	21.4915E+3	85.8573E-9	47.7267E+0
-15.6103E+0	21.4915E+3	85.8450E-9	48.4069E+0
-15.5340E+0	21.4915E+3	84.2225E-9	47.4580E+0
-15.4577E+0	21.4915E+3	82.7963E-9	46.3315E+0
-15.3813E+0	21.4915E+3	85.3486E-9	45.7780E+0
-15.3050E+0	21.4915E+3	84.9041E-9	45.8384E+0
-15.2286E+0	21.4915E+3	83.2962E-9	44.7311E+0
-15.1523E+0	21.4915E+3	83.3568E-9	44.6348E+0
-15.0760E+0	21.4915E+3	82.1244E-9	44.0833E+0
-14.9996E+0	21.4915E+3	83.5701E-9	42.5045E+0
-14.9233E+0	21.4915E+3	82.9070E-9	41.5873E+0
-14.8470E+0	21.4915E+3	81.1993E-9	42.5184E+0
-14.7706E+0	21.4915E+3	80.9833E-9	40.7437E+0
-14.6943E+0	21.4915E+3	82.3696E-9	41.1844E+0
-14.6179E+0	21.4915E+3	82.9156E-9	41.4378E+0
-14.5416E+0	21.4915E+3	81.0837E-9	40.3536E+0
-14.4653E+0	21.4915E+3	80.8944E-9	40.0887E+0
-14.3889E+0	21.4915E+3	80.9258E-9	39.6518E+0
-14.3126E+0	21.4915E+3	81.2173E-9	39.7419E+0
-14.2363E+0	21.4915E+3	79.7501E-9	39.1409E+0
-14.1599E+0	21.4915E+3	79.1070E-9	37.7886E+0
-14.0836E+0	21.4915E+3	80.6331E-9	37.1980E+0
-14.0072E+0	21.4915E+3	79.5064E-9	36.7544E+0
-13.9309E+0	21.4915E+3	79.2248E-9	36.1115E+0
-13.8546E+0	21.4915E+3	78.7434E-9	37.7447E+0
-13.7782E+0	21.4915E+3	74.6976E-9	35.5912E+0
-13.7019E+0	21.4915E+3	77.3795E-9	35.2894E+0
-13.6256E+0	21.4915E+3	77.7723E-9	34.6578E+0
-13.5492E+0	21.4915E+3	77.2598E-9	35.3016E+0
-13.4729E+0	21.4915E+3	78.3169E-9	34.0995E+0
-13.3965E+0	21.4915E+3	73.4713E-9	34.6088E+0
-13.3202E+0	21.4915E+3	76.4674E-9	34.4261E+0
-13.2439E+0	21.4915E+3	74.0457E-9	33.1599E+0
-13.1675E+0	21.4915E+3	74.9858E-9	33.2290E+0
-13.0912E+0	21.4915E+3	71.8412E-9	33.0875E+0
-13.0148E+0	21.4915E+3	76.7628E-9	32.7736E+0
-12.9385E+0	21.4915E+3	71.3858E-9	32.4979E+0
-12.8622E+0	21.4915E+3	74.1598E-9	31.8407E+0
-12.7858E+0	21.4915E+3	71.4214E-9	31.6283E+0
-12.7095E+0	21.4915E+3	73.5354E-9	30.5196E+0
-12.6332E+0	21.4915E+3	74.1456E-9	31.2491E+0
-12.5568E+0	21.4915E+3	73.7318E-9	30.2082E+0
-12.4805E+0	21.4915E+3	73.3973E-9	30.0027E+0
-12.4041E+0	21.4915E+3	73.2704E-9	31.8870E+0
-12.3278E+0	21.4915E+3	71.7261E-9	31.7286E+0
-12.2515E+0	21.4915E+3	72.6835E-9	29.4169E+0
-12.1751E+0	21.4915E+3	73.6488E-9	29.6724E+0
-12.0988E+0	21.4915E+3	71.2594E-9	29.5103E+0
-12.0225E+0	21.4915E+3	72.0239E-9	29.1773E+0
-11.9461E+0	21.4915E+3	71.8673E-9	28.9534E+0
-11.8698E+0	21.4915E+3	69.3648E-9	27.8639E+0
-11.7934E+0	21.4915E+3	68.3146E-9	28.6373E+0
-11.7171E+0	21.4915E+3	71.9665E-9	28.5022E+0
-11.6408E+0	21.4915E+3	70.0986E-9	27.6892E+0
-11.5644E+0	21.4915E+3	69.6025E-9	28.4422E+0
-11.4881E+0	21.4915E+3	68.3938E-9	29.1182E+0
-11.4118E+0	21.4915E+3	70.0717E-9	27.3491E+0
-11.3354E+0	21.4915E+3	70.9042E-9	25.8604E+0
-11.2591E+0	21.4915E+3	68.0592E-9	27.8164E+0
-11.1827E+0	21.4915E+3	69.0225E-9	26.9750E+0
-11.1064E+0	21.4915E+3	68.1308E-9	25.2559E+0
-11.0301E+0	21.4915E+3	68.0753E-9	27.2575E+0
-10.9537E+0	21.4915E+3	68.5847E-9	26.1844E+0
-10.8774E+0	21.4915E+3	64.6909E-9	23.0881E+0
-10.8011E+0	21.4915E+3	67.7645E-9	25.3338E+0
-10.7247E+0	21.4915E+3	67.3498E-9	25.8566E+0
-10.6484E+0	21.4915E+3	64.8967E-9	25.8083E+0
-10.5720E+0	21.4915E+3	66.0878E-9	24.7302E+0
-10.4957E+0	21.4915E+3	65.0056E-9	23.2730E+0
-10.4194E+0	21.4915E+3	63.6859E-9	23.0598E+0
-10.3430E+0	21.4915E+3	65.3380E-9	23.6904E+0
-10.2667E+0	21.4915E+3	65.3503E-9	24.6842E+0
-10.1903E+0	21.4915E+3	65.3423E-9	23.2795E+0
-10.1140E+0	21.4915E+3	63.7037E-9	23.6234E+0
-10.0377E+0	21.4915E+3	66.3563E-9	23.6965E+0
-9.96134E+0	21.4915E+3	63.0032E-9	22.4911E+0
-9.88500E+0	21.4915E+3	63.6244E-9	22.8765E+0
-9.80866E+0	21.4915E+3	64.4341E-9	23.5176E+0
-9.73232E+0	21.4915E+3	64.5209E-9	22.7243E+0
-9.65598E+0	21.4915E+3	64.1630E-9	23.9064E+0
-9.57965E+0	21.4915E+3	63.4395E-9	21.9806E+0
-9.50331E+0	21.4915E+3	63.3827E-9	22.7060E+0
-9.42697E+0	21.4915E+3	61.8063E-9	23.0258E+0
-9.35063E+0	21.4915E+3	61.8569E-9	23.2097E+0
-9.27430E+0	21.4915E+3	62.4631E-9	22.2258E+0
-9.19796E+0	21.4915E+3	63.1172E-9	21.2096E+0
-9.12162E+0	21.4915E+3	61.7866E-9	22.3545E+0
-9.04528E+0	21.4915E+3	61.1351E-9	21.1088E+0
-8.96894E+0	21.4915E+3	60.2222E-9	20.4855E+0
-8.89261E+0	21.4915E+3	61.9021E-9	21.1022E+0
-8.81627E+0	21.4915E+3	60.2991E-9	20.6813E+0
-8.73993E+0	21.4915E+3	61.3212E-9	21.3274E+0
-8.66359E+0	21.4915E+3	58.8512E-9	21.5983E+0
-8.58726E+0	21.4915E+3	59.7340E-9	19.6818E+0
-8.51092E+0	21.4915E+3	57.1950E-9	20.0715E+0
-8.43458E+0	21.4915E+3	60.1203E-9	20.5944E+0
-8.35824E+0	21.4915E+3	57.7450E-9	20.4166E+0
-8.28190E+0	21.4915E+3	59.8012E-9	18.9660E+0
-8.20557E+0	21.4915E+3	58.9844E-9	19.1266E+0
-8.12923E+0	21.4915E+3	60.0593E-9	19.5609E+0
-8.05289E+0	21.4915E+3	57.6854E-9	19.2658E+0
-7.97655E+0	21.4915E+3	58.4743E-9	19.3333E+0
-7.90021E+0	21.4915E+3	58.6666E-9	18.3345E+0
-7.82388E+0	21.4915E+3	57.4896E-9	18.9986E+0
-7.74754E+0	21.4915E+3	55.6191E-9	17.6000E+0
-7.67120E+0	21.4915E+3	57.2372E-9	19.2595E+0
-7.59486E+0	21.4915E+3	55.1533E-9	17.2596E+0
-7.51852E+0	21.4915E+3	56.1610E-9	18.3066E+0
-7.44218E+0	21.4915E+3	54.3888E-9	17.3325E+0
-7.36585E+0	21.4915E+3	56.8468E-9	17.1179E+0
-7.28951E+0	21.4915E+3	55.6744E-9	18.9282E+0
-7.21317E+0	21.4915E+3	56.1175E-9	17.7547E+0
-7.13683E+0	21.4915E+3	55.1740E-9	18.2833E+0
-7.06049E+0	21.4915E+3	56.1141E-9	18.6903E+0
-6.98415E+0	21.4915E+3	54.2020E-9	17.2344E+0
-6.90782E+0	21.4915E+3	57.0142E-9	16.8818E+0
-6.83148E+0	21.4915E+3	55.5537E-9	17.9408E+0
-6.75514E+0	21.4915E+3	54.2205E-9	16.9102E+0
-6.67880E+0	21.4915E+3	54.3343E-9	17.0855E+0
-6.60246E+0	21.4915E+3	55.8476E-9	17.5406E+0
-6.52612E+0	21.4915E+3	54.5698E-9	15.5037E+0
-6.44979E+0	21.4915E+3	54.3105E-9	17.9998E+0
-6.37345E+0	21.4915E+3	54.2763E-9	16.6673E+0
-6.29711E+0	21.4915E+3	53.9956E-9	16.3940E+0
-6.22077E+0	21.4915E+3	53.6235E-9	16.5538E+0
-6.14443E+0	21.4915E+3	54.2489E-9	16.5598E+0
-6.06810E+0	21.4915E+3	51.2541E-9	17.2768E+0
-5.99176E+0	21.4915E+3	54.1084E-9	16.1657E+0
-5.91542E+0	21.4915E+3	53.7739E-9	15.3778E+0
-5.83908E+0	21.4915E+3	50.5952E-9	16.2781E+0
-5.76274E+0	21.4915E+3	53.6704E-9	16.1288E+0
-5.68640E+0	21.4915E+3	51.3554E-9	15.5350E+0
-5.61007E+0	21.4915E+3	51.8835E-9	14.6911E+0
-5.53373E+0	21.4915E+3	51.4588E-9	14.2868E+0
-5.45739E+0	21.4915E+3	52.2185E-9	16.6804E+0
-5.38105E+0	21.4915E+3	51.3542E-9	15.1380E+0
-5.30471E+0	21.4915E+3	53.0000E-9	15.5177E+0
-5.22837E+0	21.4915E+3	51.3885E-9	16.2980E+0
-5.15204E+0	21.4915E+3	52.3772E-9	15.2843E+0
-5.07570E+0	21.4915E+3	51.7320E-9	15.4748E+0
-4.99936E+0	21.4915E+3	50.0936E-9	15.2348E+0
-4.92302E+0	21.4915E+3	50.7808E-9	14.7006E+0
-4.84668E+0	21.4915E+3	51.9903E-9	15.3458E+0
-4.77034E+0	21.4915E+3	50.6401E-9	13.9707E+0
-4.69401E+0	21.4915E+3	51.3348E-9	13.8678E+0
-4.61767E+0	21.4915E+3	50.0605E-9	14.9038E+0
-4.54133E+0	21.4915E+3	48.6174E-9	15.8642E+0
-4.46499E+0	21.4915E+3	50.7279E-9	16.1928E+0
-4.38865E+0	21.4915E+3	51.0817E-9	14.2237E+0
-4.31231E+0	21.4915E+3	47.7412E-9	16.5271E+0
-4.23598E+0	21.4915E+3	50.6930E-9	13.1503E+0
-4.15964E+0	21.4915E+3	51.1447E-9	13.7560E+0
-4.08330E+0	21.4915E+3	47.6802E-9	16.0944E+0
-4.00696E+0	21.4915E+3	48.9332E-9	14.9769E+0
-3.93062E+0	21.4915E+3	49.9387E-9	12.7473E+0
-3.85428E+0	21.4915E+3	46.6551E-9	14.8003E+0
-3.77795E+0	21.4915E+3	48.8855E-9	13.3463E+0
-3.70161E+0	21.4915E+3	47.6311E-9	13.4663E+0
-3.62527E+0	21.4915E+3	46.1828E-9	14.9424E+0
-3.54893E+0	21.4915E+3	47.7366E-9	15.8016E+0
-3.47259E+0	21.4915E+3	44.9977E-9	14.5513E+0
-3.39626E+0	21.4915E+3	47.7228E-9	12.1664E+0
-3.31992E+0	21.4915E+3	48.0049E-9	14.0515E+0
-3.24358E+0	21.4915E+3	47.6836E-9	13.2484E+0
-3.16724E+0	21.4915E+3	47.5062E-9	14.1887E+0
-3.09090E+0	21.4915E+3	48.2179E-9	13.6537E+0
-3.01456E+0	21.4915E+3	48.1728E-9	13.6401E+0
-2.93823E+0	21.4915E+3	47.3884E-9	15.1739E+0
-2.86189E+0	21.4915E+3	46.0088E-9	12.6337E+0
-2.78555E+0	21.4915E+3	47.1231E-9	14.2898E+0
-2.70921E+0	21.4915E+3	46.0709E-9	13.0550E+0
-2.63287E+0	21.4915E+3	48.1264E-9	13.6686E+0
-2.55653E+0	21.4915E+3	45.6936E-9	13.9170E+0
-2.48020E+0	21.4915E+3	45.6990E-9	12.2898E+0
-2.40386E+0	21.4915E+3	43.9515E-9	13.4152E+0
-2.32752E+0	21.4915E+3	47.0607E-9	12.3613E+0
-2.25118E+0	21.4915E+3	44.7966E-9	14.5357E+0
-2.17484E+0	21.4915E+3	45.3345E-9	14.2474E+0
-2.09850E+0	21.4915E+3	45.7096E-9	12.6967E+0
-2.02217E+0	21.4915E+3	46.0835E-9	12.6612E+0
-1.94583E+0	21.4915E+3	45.6207E-9	12.9337E+0
-1.86949E+0	21.4915E+3	46.3432E-9	13.8727E+0
-1.79315E+0	21.4915E+3	43.1784E-9	11.9027E+0
-1.71681E+0	21.4915E+3	46.6839E-9	11.0522E+0
-1.64047E+0	21.4915E+3	44.6436E-9	12.5245E+0
-1.56414E+0	21.4915E+3	44.6909E-9	13.0125E+0
-1.48780E+0	21.4915E+3	44.6476E-9	12.8734E+0
-1.41146E+0	21.4915E+3	44.8453E-9	13.4057E+0
-1.33512E+0	21.4915E+3	43.6432E-9	13.5562E+0
-1.25878E+0	21.4915E+3	44.9392E-9	13.1216E+0
-1.18245E+0	21.4915E+3	45.3584E-9	13.0489E+0
-1.10611E+0	21.4915E+3	42.4374E-9	12.9388E+0
-1.02977E+0	21.4915E+3	44.8462E-9	14.8103E+0
-953.431E-3	21.4915E+3	44.7049E-9	15.6105E+0
-877.093E-3	21.4915E+3	42.9534E-9	13.7525E+0
-800.755E-3	21.4915E+3	42.5270E-9	13.8051E+0
-724.417E-3	21.4915E+3	44.5744E-9	11.4539E+0
-648.079E-3	21.4915E+3	42.9868E-9	12.7005E+0
-571.741E-3	21.4915E+3	43.8159E-9	11.2010E+0
-495.402E-3	21.4915E+3	45.4691E-9	12.4365E+0
-419.064E-3	21.4915E+3	43.0200E-9	11.0389E+0
-342.726E-3	21.4915E+3	43.6699E-9	11.6845E+0
-266.388E-3	21.4915E+3	44.0294E-9	12.7171E+0
-190.050E-3	21.4915E+3	43.0940E-9	13.0315E+0
-113.711E-3	21.4915E+3	42.9219E-9	10.5126E+0
-37.3733E-3	21.4915E+3	44.0250E-9	13.9838E+0
38.9649E-3	21.4915E+3	41.4045E-9	10.8121E+0
115.303E-3	21.4915E+3	43.8927E-9	11.7495E+0
191.641E-3	21.4915E+3	43.5612E-9	12.4023E+0
267.979E-3	21.4915E+3	44.8521E-9	11.7527E+0
344.318E-3	21.4915E+3	41.4993E-9	13.5755E+0
420.656E-3	21.4915E+3	41.4947E-9	13.2918E+0
496.994E-3	21.4915E+3	40.1692E-9	11.5517E+0
573.332E-3	21.4915E+3	42.9033E-9	11.0128E+0
649.670E-3	21.4915E+3	40.9400E-9	10.8676E+0
726.008E-3	21.4915E+3	40.6484E-9	11.6632E+0
802.347E-3	21.4915E+3	42.5319E-9	9.14734E+0
878.685E-3	21.4915E+3	41.9256E-9	9.80329E+0
955.023E-3	21.4915E+3	41.8085E-9	11.3056E+0
1.03136E+0	21.4915E+3	41.6748E-9	8.86370E+0
1.10770E+0	21.4915E+3	42.0812E-9	13.7239E+0
1.18404E+0	21.4915E+3	41.4948E-9	12.0818E+0
1.26038E+0	21.4915E+3	40.1758E-9	10.6206E+0
1.33671E+0	21.4915E+3	43.5743E-9	11.4379E+0
1.41305E+0	21.4915E+3	40.1316E-9	13.5426E+0
1.48939E+0	21.4915E+3	41.1565E-9	11.7266E+0
1.56573E+0	21.4915E+3	39.5622E-9	11.0606E+0
1.64207E+0	21.4915E+3	40.1589E-9	14.3994E+0
1.71840E+0	21.4915E+3	40.6174E-9	13.5566E+0
1.79474E+0	21.4915E+3	40.6917E-9	11.6790E+0
1.87108E+0	21.4915E+3	39.5664E-9	13.1393E+0
1.94742E+0	21.4915E+3	39.5530E-9	9.74347E+0
2.02376E+0	21.4915E+3	40.4279E-9	13.2522E+0
2.10010E+0	21.4915E+3	41.9924E-9	12.1180E+0
2.17643E+0	21.4915E+3	41.3332E-9	11.9359E+0
2.25277E+0	21.4915E+3	38.7552E-9	11.0892E+0
2.32911E+0	21.4915E+3	41.1209E-9	11.9206E+0
2.40545E+0	21.4915E+3	40.6414E-9	11.8314E+0
2.48179E+0	21.4915E+3	40.1083E-9	13.4672E+0
2.55813E+0	21.4915E+3	39.9212E-9	8.62789E+0
2.63446E+0	21.4915E+3	40.1434E-9	12.5668E+0
2.71080E+0	21.4915E+3	40.7877E-9	11.8860E+0
2.78714E+0	21.4915E+3	39.5564E-9	9.02726E+0
2.86348E+0	21.4915E+3	42.1202E-9	10.5811E+0
2.93982E+0	21.4915E+3	37.4099E-9	10.7604E+0
3.01616E+0	21.4915E+3	40.2187E-9	10.1479E+0
3.09249E+0	21.4915E+3	38.7675E-9	12.3066E+0
3.16883E+0	21.4915E+3	39.4045E-9	10.3471E+0
3.24517E+0	21.4915E+3	40.1180E-9	10.6734E+0
3.32151E+0	21.4915E+3	39.6661E-9	9.46702E+0
3.39785E+0	21.4915E+3	39.6085E-9	11.1771E+0
3.47418E+0	21.4915E+3	40.0301E-9	11.5383E+0
3.55052E+0	21.4915E+3	38.8636E-9	11.6222E+0
3.62686E+0	21.4915E+3	39.3021E-9	11.6172E+0
3.70320E+0	21.4915E+3	38.1119E-9	8.48463E+0
3.77954E+0	21.4915E+3	39.0813E-9	12.4759E+0
3.85588E+0	21.4915E+3	37.7703E-9	14.4561E+0
3.93221E+0	21.4915E+3	39.8294E-9	9.66820E+0
4.00855E+0	21.4915E+3	38.4008E-9	10.0419E+0
4.08489E+0	21.4915E+3	38.5613E-9	12.3115E+0
4.16123E+0	21.4915E+3	37.8698E-9	11.9944E+0
4.23757E+0	21.4915E+3	39.1032E-9	11.4845E+0
4.31391E+0	21.4915E+3	36.0820E-9	11.7137E+0
4.39024E+0	21.4915E+3	38.3298E-9	10.4241E+0
4.46658E+0	21.4915E+3	39.4529E-9	12.4611E+0
4.54292E+0	21.4915E+3	37.3017E-9	13.2274E+0
4.61926E+0	21.4915E+3	39.4883E-9	11.1723E+0
4.69560E+0	21.4915E+3	38.2057E-9	13.1573E+0
4.77194E+0	21.4915E+3	38.1376E-9	10.1635E+0
4.84827E+0	21.4915E+3	37.4261E-9	9.16397E+0
4.92461E+0	21.4915E+3	38.7723E-9	12.1460E+0
5.00095E+0	21.4915E+3	38.4746E-9	11.2124E+0
5.07729E+0	21.4915E+3	37.9930E-9	11.3071E+0
5.15363E+0	21.4915E+3	36.6853E-9	12.1222E+0
5.22997E+0	21.4915E+3	37.3486E-9	12.2241E+0
5.30630E+0	21.4915E+3	38.4904E-9	14.2604E+0
5.38264E+0	21.4915E+3	36.2802E-9	8.81857E+0
5.45898E+0	21.4915E+3	38.5993E-9	10.8500E+0
5.53532E+0	21.4915E+3	37.1849E-9	10.7296E+0
5.61166E+0	21.4915E+3	37.6488E-9	8.43200E+0
5.68800E+0	21.4915E+3	37.8067E-9	11.7908E+0
5.76433E+0	21.4915E+3	37.6029E-9	11.0871E+0
5.84067E+0	21.4915E+3	35.3697E-9	11.4891E+0
5.91701E+0	21.4915E+3	37.8771E-9	11.6170E+0
5.99335E+0	21.4915E+3	37.3179E-9	9.75414E+0
6.06969E+0	21.4915E+3	36.2862E-9	11.9339E+0
6.14603E+0	21.4915E+3	36.8207E-9	11.2554E+0
6.22236E+0	21.4915E+3	37.3616E-9	10.4513E+0
6.29870E+0	21.4915E+3	35.3314E-9	11.4080E+0
6.37504E+0	21.4915E+3	37.5201E-9	13.2748E+0
6.45138E+0	21.4915E+3	36.4767E-9	10.8548E+0
6.52772E+0	21.4915E+3	36.9921E-9	9.81244E+0
6.60405E+0	21.4915E+3	36.3566E-9	12.2767E+0
6.68039E+0	21.4915E+3	36.4072E-9	10.6062E+0
6.75673E+0	21.4915E+3	37.0341E-9	14.1236E+0
6.83307E+0	21.4915E+3	36.3774E-9	13.2720E+0
6.90941E+0	21.4915E+3	35.5652E-9	8.67965E+0
6.98575E+0	21.4915E+3	36.3562E-9	13.1319E+0
7.06208E+0	21.4915E+3	34.9842E-9	9.62534E+0
7.13842E+0	21.4915E+3	37.2540E-9	11.6191E+0
7.21476E+0	21.4915E+3	36.8305E-9	9.48334E+0
7.29110E+0	21.4915E+3	36.5617E-9	10.5922E+0
7.36744E+0	21.4915E+3	36.1115E-9	11.0003E+0
7.44378E+0	21.4915E+3	36.9905E-9	9.73514E+0
7.52011E+0	21.4915E+3	35.6314E-9	11.0924E+0
7.59645E+0	21.4915E+3	37.1438E-9	9.75144E+0
7.67279E+0	21.4915E+3	36.6011E-9	8.86100E+0
7.74913E+0	21.4915E+3	36.4593E-9	8.93079E+0
7.82547E+0	21.4915E+3	35.5565E-9	11.0220E+0
7.90181E+0	21.4915E+3	36.0531E-9	13.4112E+0
7.97814E+0	21.4915E+3	35.3095E-9	9.80086E+0
8.05448E+0	21.4915E+3	35.1054E-9	11.1146E+0
8.13082E+0	21.4915E+3	34.9402E-9	11.3774E+0
8.20716E+0	21.4915E+3	35.3749E-9	13.1260E+0
8.28350E+0	21.4915E+3	35.2412E-9	11.2937E+0
8.35983E+0	21.4915E+3	34.8810E-9	10.4272E+0
8.43617E+0	21.4915E+3	35.5696E-9	10.8021E+0
8.51251E+0	21.4915E+3	35.9171E-9	8.92194E+0
8.58885E+0	21.4915E+3	34.7635E-9	11.1363E+0
8.66518E+0	21.4915E+3	35.4505E-9	9.87460E+0
8.74152E+0	21.4915E+3	36.6980E-9	11.5884E+0
8.81786E+0	21.4915E+3	34.6267E-9	9.72684E+0
8.89420E+0	21.4915E+3	35.8048E-9	11.5946E+0
8.97054E+0	21.4915E+3	35.3052E-9	10.5335E+0
9.04687E+0	21.4915E+3	34.2775E-9	9.20425E+0
9.12321E+0	21.4915E+3	36.2003E-9	10.6795E+0
9.19955E+0	21.4915E+3	35.2591E-9	9.15469E+0
9.27589E+0	21.4915E+3	34.8804E-9	12.1238E+0
9.35223E+0	21.4915E+3	36.0635E-9	11.0976E+0
9.42856E+0	21.4915E+3	34.5590E-9	12.1342E+0
9.50490E+0	21.4915E+3	34.6683E-9	9.76173E+0
9.58124E+0	21.4915E+3	35.1014E-9	11.1968E+0
9.65758E+0	21.4915E+3	34.8103E-9	11.2966E+0
9.73391E+0	21.4915E+3	34.3196E-9	8.20129E+0
9.81025E+0	21.4915E+3	35.0307E-9	12.9784E+0
9.88659E+0	21.4915E+3	34.7997E-9	9.56503E+0
9.96293E+0	21.4915E+3	34.0013E-9	13.0576E+0
10.0393E+0	21.4915E+3	34.4539E-9	9.66450E+0
10.1156E+0	21.4915E+3	33.9568E-9	10.2278E+0
10.1919E+0	21.4915E+3	34.5553E-9	10.5050E+0
10.2683E+0	21.4915E+3	34.3991E-9	10.9408E+0
10.3446E+0	21.4915E+3	34.9741E-9	8.11555E+0
10.4210E+0	21.4915E+3	34.3380E-9	8.50186E+0
10.4973E+0	21.4915E+3	34.3222E-9	11.0371E+0
10.5736E+0	21.4915E+3	34.2030E-9	8.81133E+0
10.6500E+0	21.4915E+3	33.0060E-9	9.83443E+0
10.7263E+0	21.4915E+3	35.5269E-9	9.09033E+0
10.8026E+0	21.4915E+3	34.5785E-9	11.9912E+0
10.8790E+0	21.4915E+3	32.1661E-9	12.6230E+0
10.9553E+0	21.4915E+3	34.6545E-9	9.32399E+0
11.0317E+0	21.4915E+3	35.1824E-9	13.5577E+0
11.1080E+0	21.4915E+3	33.5528E-9	11.0511E+0
11.1843E+0	21.4915E+3	33.0891E-9	11.1796E+0
11.2607E+0	21.4915E+3	34.0670E-9	9.84517E+0
11.3370E+0	21.4915E+3	33.5183E-9	12.2868E+0
11.4133E+0	21.4915E+3	33.9372E-9	10.5714E+0
11.4897E+0	21.4915E+3	33.2394E-9	7.91468E+0
11.5660E+0	21.4915E+3	33.4152E-9	9.41782E+0
11.6424E+0	21.4915E+3	33.3759E-9	12.5747E+0
11.7187E+0	21.4915E+3	33.2056E-9	10.0016E+0
11.7950E+0	21.4915E+3	35.2113E-9	10.2022E+0
11.8714E+0	21.4915E+3	33.5348E-9	9.69855E+0
11.9477E+0	21.4915E+3	32.1668E-9	7.38728E+0
12.0240E+0	21.4915E+3	33.3380E-9	13.1846E+0
12.1004E+0	21.4915E+3	33.6215E-9	7.91341E+0
12.1767E+0	21.4915E+3	33.7604E-9	10.2955E+0
12.2531E+0	21.4915E+3	32.2994E-9	9.30398E+0
12.3294E+0	21.4915E+3	31.9418E-9	13.0244E+0
12.4057E+0	21.4915E+3	33.5797E-9	9.88985E+0
12.4821E+0	21.4915E+3	31.8023E-9	9.91144E+0
12.5584E+0	21.4915E+3	34.0418E-9	11.4167E+0
12.6348E+0	21.4915E+3	33.4727E-9	8.34048E+0
12.7111E+0	21.4915E+3	32.7516E-9	12.9381E+0
12.7874E+0	21.4915E+3	33.5968E-9	8.62185E+0
12.8638E+0	21.4915E+3	34.0921E-9	10.9311E+0
12.9401E+0	21.4915E+3	33.1994E-9	11.4858E+0
13.0164E+0	21.4915E+3	34.1355E-9	9.02254E+0
13.0928E+0	21.4915E+3	32.8771E-9	11.0002E+0
13.1691E+0	21.4915E+3	31.4546E-9	13.1788E+0
13.2455E+0	21.4915E+3	31.6349E-9	11.2112E+0
13.3218E+0	21.4915E+3	34.1100E-9	10.8113E+0
13.3981E+0	21.4915E+3	32.8750E-9	11.9650E+0
13.4745E+0	21.4915E+3	34.8536E-9	11.2047E+0
13.5508E+0	21.4915E+3	33.2049E-9	10.3725E+0
13.6271E+0	21.4915E+3	32.0045E-9	14.6343E+0
13.7035E+0	21.4915E+3	33.7487E-9	12.2765E+0
13.7798E+0	21.4915E+3	29.4853E-9	11.9076E+0
13.8562E+0	21.4915E+3	32.1622E-9	11.2580E+0
13.9325E+0	21.4915E+3	32.5879E-9	12.1726E+0
14.0088E+0	21.4915E+3	33.3795E-9	9.24659E+0
14.0852E+0	21.4915E+3	29.6269E-9	8.37857E+0
14.1615E+0	21.4915E+3	31.6297E-9	12.7568E+0
14.2378E+0	21.4915E+3	31.2500E-9	12.7045E+0
14.3142E+0	21.4915E+3	32.0714E-9	10.3365E+0
14.3905E+0	21.4915E+3	31.6922E-9	8.87461E+0
14.4669E+0	21.4915E+3	33.0607E-9	11.3759E+0
14.5432E+0	21.4915E+3	29.0682E-9	10.8207E+0
14.6195E+0	21.4915E+3	33.3142E-9	13.0984E+0
14.6959E+0	21.4915E+3	32.0705E-9	8.60952E+0
14.7722E+0	21.4915E+3	33.6945E-9	11.6680E+0
14.8485E+0	21.4915E+3	31.1785E-9	11.2428E+0
14.9249E+0	21.4915E+3	31.8746E-9	9.56790E+0
15.0012E+0	21.4915E+3	30.2961E-9	10.9602E+0
15.0776E+0	21.4915E+3	33.3833E-9	11.1313E+0
15.1539E+0	21.4915E+3	30.6013E-9	11.9694E+0
15.2302E+0	21.4915E+3	32.1380E-9	11.9266E+0
15.3066E+0	21.4915E+3	31.5130E-9	11.3831E+0
15.3829E+0	21.4915E+3	33.1430E-9	7.80259E+0
15.4593E+0	21.4915E+3	32.5810E-9	11.9690E+0
15.5356E+0	21.4915E+3	31.7966E-9	10.5107E+0
15.6119E+0	21.4915E+3	31.4447E-9	9.95992E+0
15.6883E+0	21.4915E+3	30.2793E-9	16.1182E+0
15.7646E+0	21.4915E+3	33.2681E-9	11.0944E+0
15.8409E+0	21.4915E+3	32.5848E-9	9.87021E+0
15.9173E+0	21.4915E+3	31.3910E-9	12.9884E+0
15.9936E+0	21.4915E+3	30.8856E-9	15.0741E+0
16.0700E+0	21.4915E+3	31.0490E-9	13.5180E+0
16.1463E+0	21.4915E+3	32.1675E-9	13.7683E+0
16.2226E+0	21.4915E+3	31.1148E-9	13.1351E+0
16.2990E+0	21.4915E+3	31.2680E-9	11.5539E+0
16.3753E+0	21.4915E+3	29.5092E-9	8.43199E+0
16.4516E+0	21.4915E+3	30.1554E-9	9.87862E+0
16.5280E+0	21.4915E+3	30.9286E-9	13.8370E+0
16.6043E+0	21.4915E+3	32.8710E-9	12.4899E+0
16.6807E+0	21.4915E+3	31.6259E-9	11.8463E+0
16.7570E+0	21.4915E+3	30.8684E-9	10.0008E+0
16.8333E+0	21.4915E+3	30.9886E-9	9.74817E+0
16.9097E+0	21.4915E+3	29.6322E-9	7.58959E+0
16.9860E+0	21.4915E+3	31.7406E-9	11.6325E+0
17.0623E+0	21.4915E+3	31.3831E-9	9.58537E+0
17.1387E+0	21.4915E+3	31.8429E-9	11.5551E+0
17.2150E+0	21.4915E+3	31.6745E-9	13.4627E+0
17.2914E+0	21.4915E+3	28.9677E-9	9.61419E+0
17.3677E+0	21.4915E+3	31.0057E-9	9.09959E+0
17.4440E+0	21.4915E+3	31.0378E-9	9.24529E+0
17.5204E+0	21.4915E+3	30.5033E-9	8.64370E+0
17.5967E+0	21.4915E+3	30.1252E-9	10.0545E+0
17.6730E+0	21.4915E+3	31.4594E-9	9.34102E+0
17.7494E+0	21.4915E+3	30.9297E-9	10.8168E+0
17.8257E+0	21.4915E+3	31.3135E-9	12.1175E+0
17.9021E+0	21.4915E+3	31.1812E-9	9.77984E+0
17.9784E+0	21.4915E+3	29.8887E-9	8.15003E+0
18.0547E+0	21.4915E+3	29.7169E-9	9.24037E+0
18.1311E+0	21.4915E+3	29.8121E-9	9.70138E+0
18.2074E+0	21.4915E+3	30.5342E-9	7.78732E+0
18.2838E+0	21.4915E+3	29.9685E-9	13.2689E+0
18.3601E+0	21.4915E+3	30.2020E-9	9.98176E+0
18.4364E+0	21.4915E+3	31.4559E-9	8.75492E+0
18.5128E+0	21.4915E+3	30.1749E-9	13.0904E+0
18.5891E+0	21.4915E+3	29.9613E-9	12.3715E+0
18.6654E+0	21.4915E+3	29.0102E-9	10.4325E+0
18.7418E+0	21.4915E+3	31.5178E-9	11.5194E+0
18.8181E+0	21.4915E+3	30.0872E-9	9.05184E+0
18.8945E+0	21.4915E+3	29.4520E-9	11.6695E+0
18.9708E+0	21.4915E+3	30.0719E-9	12.3271E+0
19.0471E+0	21.4915E+3	29.5395E-9	10.7746E+0
19.1235E+0	21.4915E+3	29.7013E-9	11.8900E+0
19.1998E+0	21.4915E+3	32.0089E-9	10.3090E+0
19.2761E+0	21.4915E+3	29.4239E-9	10.5015E+0
19.3525E+0	21.4915E+3	28.9021E-9	13.7017E+0
19.4288E+0	21.4915E+3	30.7008E-9	9.97674E+0
19.5052E+0	21.4915E+3	30.1306E-9	11.4227E+0
19.5815E+0	21.4915E+3	29.4864E-9	10.0427E+0
19.6578E+0	21.4915E+3	31.1255E-9	9.98508E+0
19.7342E+0	21.4915E+3	28.7944E-9	9.81629E+0
19.8105E+0	21.4915E+3	31.0135E-9	11.4450E+0
19.8868E+0	21.4915E+3	30.1550E-9	12.1913E+0
19.9632E+0	21.4915E+3	29.5013E-9	12.0463E+0
20.0395E+0	21.4915E+3	29.8059E-9	10.0114E+0
20.1159E+0	21.4915E+3	30.4216E-9	12.3474E+0
20.1922E+0	21.4915E+3	28.5790E-9	12.5626E+0
20.2685E+0	21.4915E+3	30.6917E-9	13.0884E+0
20.3449E+0	21.4915E+3	29.0036E-9	9.44897E+0
20.4212E+0	21.4915E+3	30.9089E-9	12.1097E+0
20.4975E+0	21.4915E+3	28.4976E-9	8.79419E+0
20.5739E+0	21.4915E+3	29.7868E-9	10.3833E+0
20.6502E+0	21.4915E+3	29.6562E-9	11.4517E+0
20.7266E+0	21.4915E+3	31.6090E-9	13.8518E+0
20.8029E+0	21.4915E+3	28.8917E-9	14.4317E+0
20.8792E+0	21.4915E+3	29.3621E-9	12.5271E+0
20.9556E+0	21.4915E+3	30.0637E-9	11.7274E+0
21.0319E+0	21.4915E+3	29.6762E-9	12.6102E+0
21.1082E+0	21.4915E+3	29.6463E-9	10.4376E+0
21.1846E+0	21.4915E+3	28.9050E-9	11.9122E+0
21.2609E+0	21.4915E+3	28.2393E-9	11.3428E+0
21.3373E+0	21.4915E+3	28.8068E-9	14.3824E+0
21.4136E+0	21.4915E+3	29.7674E-9	9.91435E+0
21.4899E+0	21.4915E+3	30.2377E-9	13.2268E+0
21.5663E+0	21.4915E+3	29.9962E-9	10.4994E+0
21.6426E+0	21.4915E+3	31.1117E-9	7.46104E+0
21.7190E+0	21.4915E+3	29.6154E-9	13.3420E+0
21.7953E+0	21.4915E+3	30.6958E-9	13.1451E+0
21.8716E+0	21.4915E+3	29.0688E-9	12.6708E+0
21.9480E+0	21.4915E+3	28.4779E-9	11.8944E+0
22.0243E+0	21.4915E+3	29.5340E-9	12.8021E+0
22.1006E+0	21.4915E+3	30.2878E-9	10.9359E+0
22.1770E+0	21.4915E+3	29.1589E-9	8.95151E+0
22.2533E+0	21.4915E+3	29.1563E-9	8.27414E+0
22.3297E+0	21.4915E+3	29.2035E-9	9.09938E+0
22.4060E+0	21.4915E+3	29.5198E-9	9.04256E+0
22.4823E+0	21.4915E+3	29.4221E-9	11.5079E+0
22.5587E+0	21.4915E+3	29.6606E-9	9.72856E+0
22.6350E+0	21.4915E+3	28.8197E-9	10.3209E+0
22.7113E+0	21.4915E+3	30.9798E-9	11.4535E+0
22.7877E+0	21.4915E+3	29.5056E-9	10.7382E+0
22.8640E+0	21.4915E+3	30.3263E-9	9.87523E+0
22.9404E+0	21.4915E+3	29.6409E-9	10.2827E+0
23.0167E+0	21.4915E+3	28.3506E-9	10.1720E+0
23.0930E+0	21.4915E+3	28.9898E-9	12.7554E+0
23.1694E+0	21.4915E+3	29.1121E-9	10.9721E+0
23.2457E+0	21.4915E+3	28.9405E-9	9.71879E+0
23.3220E+0	21.4915E+3	27.5865E-9	14.1796E+0
23.3984E+0	21.4915E+3	29.1333E-9	10.4919E+0
23.4747E+0	21.4915E+3	28.7967E-9	12.8128E+0
23.5511E+0	21.4915E+3	29.7031E-9	11.5629E+0
23.6274E+0	21.4915E+3	27.9826E-9	9.99716E+0
23.7037E+0	21.4915E+3	28.9566E-9	13.1142E+0
23.7801E+0	21.4915E+3	29.0299E-9	14.2331E+0
23.8564E+0	21.4915E+3	29.5506E-9	11.9951E+0
23.9327E+0	21.4915E+3	28.6078E-9	13.8949E+0
24.0091E+0	21.4915E+3	27.9608E-9	14.4969E+0
24.0854E+0	21.4915E+3	28.8243E-9	10.9134E+0
24.1618E+0	21.4915E+3	28.2811E-9	8.51820E+0
24.2381E+0	21.4915E+3	30.4198E-9	10.7937E+0
24.3144E+0	21.4915E+3	29.2028E-9	9.78990E+0
24.3908E+0	21.4915E+3	27.8679E-9	11.2525E+0
24.4671E+0	21.4915E+3	29.2583E-9	10.4885E+0
24.5435E+0	21.4915E+3	28.0157E-9	12.9001E+0
24.6198E+0	21.4915E+3	27.8616E-9	11.5738E+0
24.6961E+0	21.4915E+3	29.9639E-9	12.2960E+0
24.7725E+0	21.4915E+3	27.6953E-9	17.9777E+0
24.8488E+0	21.4915E+3	28.7568E-9	12.3785E+0
24.9251E+0	21.4915E+3	28.8973E-9	13.3839E+0
25.0015E+0	21.4915E+3	28.6535E-9	15.1623E+0
25.0778E+0	21.4915E+3	28.2424E-9	12.2430E+0
25.1542E+0	21.4915E+3	28.6611E-9	7.33883E+0
25.2305E+0	21.4915E+3	28.7646E-9	14.4076E+0
25.3068E+0	21.4915E+3	29.3155E-9	10.8891E+0
25.3832E+0	21.4915E+3	28.2667E-9	14.7022E+0
25.4595E+0	21.4915E+3	27.3580E-9	11.9935E+0
25.5358E+0	21.4915E+3	28.7607E-9	7.87742E+0
25.6122E+0	21.4915E+3	30.1941E-9	11.1682E+0
25.6885E+0	21.4915E+3	29.7928E-9	11.3068E+0
25.7649E+0	21.4915E+3	28.6758E-9	10.9643E+0
25.8412E+0	21.4915E+3	27.7569E-9	13.9769E+0
25.9175E+0	21.4915E+3	28.6188E-9	12.1613E+0
25.9939E+0	21.4915E+3	27.8504E-9	14.1458E+0
26.0702E+0	21.4915E+3	27.6026E-9	12.8070E+0
26.1465E+0	21.4915E+3	28.5133E-9	12.5627E+0
26.2229E+0	21.4915E+3	28.5790E-9	11.7095E+0
26.2992E+0	21.4915E+3	28.6666E-9	11.6966E+0
26.3756E+0	21.4915E+3	28.4100E-9	12.0481E+0
26.4519E+0	21.4915E+3	29.7432E-9	11.1329E+0
26.5282E+0	21.4915E+3	27.8011E-9	12.4318E+0
26.6046E+0	21.4915E+3	28.6930E-9	13.2712E+0
26.6809E+0	21.4915E+3	27.7661E-9	11.5800E+0
26.7572E+0	21.4915E+3	29.2756E-9	10.2176E+0
26.8336E+0	21.4915E+3	27.4865E-9	13.9892E+0
26.9099E+0	21.4915E+3	29.1686E-9	12.1377E+0
26.9863E+0	21.4915E+3	28.6887E-9	9.97453E+0
27.0626E+0	21.4915E+3	26.7802E-9	10.0154E+0
27.1389E+0	21.4915E+3	28.3999E-9	10.0655E+0
27.2153E+0	21.4915E+3	27.4940E-9	13.6958E+0
27.2916E+0	21.4915E+3	25.9580E-9	15.4859E+0
27.3680E+0	21.4915E+3	27.9108E-9	9.09538E+0
27.4443E+0	21.4915E+3	27.9177E-9	11.5905E+0
27.5206E+0	21.4915E+3	27.0930E-9	14.4901E+0
27.5970E+0	21.4915E+3	27.2117E-9	10.0876E+0
27.6733E+0	21.4915E+3	28.9396E-9	12.7554E+0
27.7496E+0	21.4915E+3	26.8544E-9	12.5762E+0
27.8260E+0	21.4915E+3	30.1468E-9	11.7653E+0
27.9023E+0	21.4915E+3	27.2063E-9	13.1393E+0
27.9787E+0	21.4915E+3	27.3096E-9	9.48618E+0
28.0550E+0	21.4915E+3	28.7810E-9	11.6824E+0
28.1313E+0	21.4915E+3	29.3074E-9	9.76090E+0
28.2077E+0	21.4915E+3	28.3361E-9	12.4923E+0
28.2840E+0	21.4915E+3	28.5550E-9	12.9144E+0
28.3603E+0	21.4915E+3	28.8513E-9	12.3768E+0
28.4367E+0	21.4915E+3	28.6208E-9	10.5402E+0
28.5130E+0	21.4915E+3	27.6236E-9	9.85147E+0
28.5894E+0	21.4915E+3	28.6695E-9	9.48800E+0
28.6657E+0	21.4915E+3	28.3918E-9	13.9057E+0
28.7420E+0	21.4915E+3	26.9730E-9	13.0733E+0
28.8184E+0	21.4915E+3	27.5168E-9	9.95767E+0
28.8947E+0	21.4915E+3	26.5693E-9	8.27503E+0
28.9710E+0	21.4915E+3	26.7368E-9	10.7593E+0
29.0474E+0	21.4915E+3	27.4308E-9	10.4950E+0
29.1237E+0	21.4915E+3	27.3242E-9	15.0654E+0
29.2001E+0	21.4915E+3	27.8665E-9	11.5804E+0
29.2764E+0	21.4915E+3	27.9197E-9	8.63816E+0
29.3527E+0	21.4915E+3	28.0341E-9	9.48977E+0
29.4291E+0	21.4915E+3	28.9822E-9	11.0230E+0
29.5054E+0	21.4915E+3	28.1067E-9	6.11996E+0
29.5817E+0	21.4915E+3	28.8796E-9	11.0248E+0
29.6581E+0	21.4915E+3	29.0083E-9	9.11068E+0
29.7344E+0	21.4915E+3	26.4124E-9	14.3558E+0
29.8108E+0	21.4915E+3	26.6493E-9	13.8828E+0
29.8871E+0	21.4915E+3	26.7787E-9	12.1925E+0
29.9634E+0	21.4915E+3	27.2751E-9	13.2657E+0
30.0398E+0	21.4915E+3	28.8110E-9	15.0454E+0
30.1161E+0	21.4915E+3	28.8021E-9	12.8588E+0
30.1924E+0	21.4915E+3	25.9579E-9	8.46015E+0
30.2688E+0	21.4915E+3	27.8065E-9	13.9190E+0
30.3451E+0	21.4915E+3	26.7307E-9	9.48478E+0
30.4215E+0	21.4915E+3	26.9399E-9	10.9243E+0
30.4978E+0	21.4915E+3	27.5134E-9	14.3968E+0
30.5741E+0	21.4915E+3	27.3065E-9	14.0245E+0
30.6505E+0	21.4915E+3	28.2620E-9	12.3648E+0
30.7268E+0	21.4915E+3	27.8804E-9	11.7476E+0
30.8032E+0	21.4915E+3	26.7007E-9	8.38538E+0
30.8795E+0	21.4915E+3	27.1791E-9	11.0841E+0
30.9558E+0	21.4915E+3	26.5167E-9	17.0413E+0
31.0322E+0	21.4915E+3	26.4831E-9	12.3851E+0
31.1085E+0	21.4915E+3	27.6057E-9	12.5598E+0
31.1848E+0	21.4915E+3	27.7963E-9	16.2189E+0
31.2612E+0	21.4915E+3	28.3117E-9	16.1236E+0
31.3375E+0	21.4915E+3	27.5937E-9	11.8616E+0
31.4139E+0	21.4915E+3	26.5226E-9	13.6633E+0
31.4902E+0	21.4915E+3	27.6690E-9	12.2328E+0
31.5665E+0	21.4915E+3	28.3279E-9	13.3603E+0
31.6429E+0	21.4915E+3	28.0736E-9	11.4395E+0
31.7192E+0	21.4915E+3	28.0020E-9	17.9145E+0
31.7955E+0	21.4915E+3	27.4679E-9	14.2038E+0
31.8719E+0	21.4915E+3	27.2909E-9	13.8208E+0
31.9482E+0	21.4915E+3	26.2922E-9	15.0216E+0
32.0246E+0	21.4915E+3	29.4584E-9	11.7391E+0
32.1009E+0	21.4915E+3	24.4824E-9	9.48962E+0
32.1772E+0	21.4915E+3	27.9621E-9	11.9931E+0
32.2536E+0	21.4915E+3	27.7955E-9	13.6134E+0
32.3299E+0	21.4915E+3	27.6595E-9	12.9556E+0
32.4063E+0	21.4915E+3	26.8454E-9	10.1106E+0
32.4826E+0	21.4915E+3	26.7319E-9	7.80097E+0
32.5589E+0	21.4915E+3	27.8961E-9	12.3824E+0
32.6353E+0	21.4915E+3	26.2818E-9	13.5211E+0
32.7116E+0	21.4915E+3	26.6896E-9	13.3366E+0
32.7880E+0	21.4915E+3	25.8261E-9	11.2276E+0
32.8643E+0	21.4915E+3	25.8697E-9	14.8887E+0
32.9406E+0	21.4915E+3	26.0813E-9	15.6874E+0
33.0170E+0	21.4915E+3	25.7723E-9	10.0444E+0
33.0933E+0	21.4915E+3	26.2714E-9	15.0763E+0
33.1697E+0	21.4915E+3	26.1378E-9	15.1120E+0
33.2460E+0	21.4915E+3	27.9947E-9	16.1240E+0
33.3223E+0	21.4915E+3	27.5343E-9	13.0748E+0
33.3987E+0	21.4915E+3	27.1660E-9	14.3167E+0
33.4750E+0	21.4915E+3	26.3957E-9	14.1392E+0
33.5514E+0	21.4915E+3	25.9569E-9	12.8999E+0
33.6277E+0	21.4915E+3	28.0401E-9	12.5166E+0
33.7040E+0	21.4915E+3	25.7837E-9	11.4497E+0
33.7804E+0	21.4915E+3	26.8422E-9	12.3570E+0
33.8567E+0	21.4915E+3	26.8922E-9	14.9383E+0
33.9331E+0	21.4915E+3	27.0387E-9	9.89917E+0
34.0094E+0	21.4915E+3	27.3303E-9	10.7818E+0
34.0857E+0	21.4915E+3	27.7275E-9	13.9049E+0
34.1621E+0	21.4915E+3	24.8659E-9	13.0859E+0
34.2384E+0	21.4915E+3	27.4699E-9	10.4041E+0
34.3148E+0	21.4915E+3	27.1271E-9	9.73324E+0
34.3911E+0	21.4915E+3	27.1577E-9	9.19593E+0
34.4674E+0	21.4915E+3	26.4277E-9	10.5440E+0
34.5438E+0	21.4915E+3	26.6993E-9	14.6737E+0
34.6201E+0	21.4915E+3	27.1331E-9	12.6555E+0
34.6964E+0	21.4915E+3	27.1510E-9	17.5215E+0
34.7728E+0	21.4915E+3	26.6555E-9	11.2392E+0
34.8491E+0	21.4915E+3	28.4941E-9	15.0962E+0
34.9255E+0	21.4915E+3	27.6155E-9	8.96549E+0
35.0018E+0	21.4915E+3	26.3006E-9	12.0051E+0
35.0781E+0	21.4915E+3	26.0317E-9	11.2718E+0
35.1545E+0	21.4915E+3	27.7136E-9	11.8093E+0
35.2308E+0	21.4915E+3	27.5618E-9	11.8581E+0
35.3072E+0	21.4915E+3	26.3470E-9	16.3601E+0
35.3835E+0	21.4915E+3	26.6887E-9	14.7851E+0
35.4598E+0	21.4915E+3	26.1760E-9	9.35991E+0
35.5362E+0	21.4915E+3	27.5021E-9	12.5186E+0
35.6125E+0	21.4915E+3	26.3647E-9	12.4326E+0
35.6889E+0	21.4915E+3	26.3253E-9	10.1372E+0
35.7652E+0	21.4915E+3	26.4958E-9	14.3963E+0
35.8415E+0	21.4915E+3	25.7436E-9	8.79232E+0
35.9179E+0	21.4915E+3	26.8286E-9	14.3673E+0
35.9942E+0	21.4915E+3	26.1181E-9	12.4602E+0
36.0706E+0	21.4915E+3	25.2778E-9	11.6206E+0
36.1469E+0	21.4915E+3	27.3110E-9	15.6026E+0
36.2232E+0	21.4915E+3	26.8835E-9	15.8466E+0
36.2996E+0	21.4915E+3	25.8206E-9	11.3812E+0
36.3759E+0	21.4915E+3	27.3634E-9	14.0691E+0
36.4523E+0	21.4915E+3	24.6844E-9	16.8036E+0
36.5286E+0	21.4915E+3	26.3314E-9	13.4723E+0
36.6049E+0	21.4915E+3	26.3151E-9	8.20334E+0
36.6813E+0	21.4915E+3	25.7518E-9	13.8837E+0
36.7576E+0	21.4915E+3	25.5385E-9	14.4030E+0
36.8340E+0	21.4915E+3	26.0944E-9	15.0228E+0
36.9103E+0	21.4915E+3	25.1733E-9	13.8550E+0
36.9866E+0	21.4915E+3	26.0205E-9	12.2426E+0
37.0630E+0	21.4915E+3	26.4761E-9	13.6927E+0
37.1393E+0	21.4915E+3	27.2632E-9	11.1479E+0
37.2157E+0	21.4915E+3	26.7950E-9	10.8457E+0
37.2920E+0	21.4915E+3	26.6490E-9	13.3890E+0
37.3683E+0	21.4915E+3	27.9524E-9	12.0504E+0
37.4447E+0	21.4915E+3	26.2022E-9	12.4395E+0
37.5210E+0	21.4915E+3	26.4143E-9	12.2138E+0
37.5974E+0	21.4915E+3	23.9144E-9	9.91680E+0
37.6737E+0	21.4915E+3	25.8671E-9	15.7470E+0
37.7500E+0	21.4915E+3	24.3549E-9	9.86891E+0
37.8264E+0	21.4915E+3	27.5160E-9	8.77713E+0
37.9027E+0	21.4915E+3	26.4927E-9	14.9808E+0
37.9791E+0	21.4915E+3	26.2630E-9	12.1969E+0
38.0554E+0	21.4915E+3	25.9127E-9	12.1735E+0
38.1317E+0	21.4915E+3	25.9963E-9	8.64495E+0
38.2081E+0	21.4915E+3	26.2311E-9	8.71458E+0
38.2844E+0	21.4915E+3	27.4024E-9	14.0414E+0
38.3608E+0	21.4915E+3	26.1572E-9	15.4639E+0
38.4371E+0	21.4915E+3	25.6115E-9	17.7615E+0
38.5134E+0	21.4915E+3	25.6967E-9	13.2775E+0
38.5898E+0	21.4915E+3	25.7422E-9	12.9364E+0
38.6661E+0	21.4915E+3	27.2946E-9	12.5896E+0
38.7425E+0	21.4915E+3	24.9459E-9	18.6836E+0
38.8188E+0	21.4915E+3	24.9681E-9	13.8759E+0
38.8951E+0	21.4915E+3	26.8874E-9	10.6192E+0
38.9715E+0	21.4915E+3	26.4693E-9	10.0467E+0
39.0478E+0	21.4915E+3	24.1839E-9	17.4618E+0
39.1242E+0	21.4915E+3	25.8963E-9	13.1693E+0
39.2005E+0	21.4915E+3	26.2671E-9	13.5011E+0
39.2768E+0	21.4915E+3	25.4321E-9	18.6600E+0
39.3532E+0	21.4915E+3	27.1867E-9	10.9029E+0
39.4295E+0	21.4915E+3	26.4178E-9	10.5035E+0
39.5059E+0	21.4915E+3	25.3471E-9	12.8516E+0
39.5822E+0	21.4915E+3	26.4300E-9	15.2156E+0
39.6585E+0	21.4915E+3	25.0316E-9	11.3559E+0
39.7349E+0	21.4915E+3	27.6379E-9	16.8833E+0
39.8112E+0	21.4915E+3	26.9770E-9	13.3305E+0
39.8876E+0	21.4915E+3	23.3730E-9	11.9023E+0
39.9639E+0	21.4915E+3	24.2831E-9	12.7774E+0
40.0402E+0	21.4915E+3	25.4211E-9	14.3064E+0
40.1166E+0	21.4915E+3	25.9099E-9	16.6493E+0
40.1929E+0	21.4915E+3	25.4039E-9	15.1878E+0
40.2692E+0	21.4915E+3	25.9315E-9	12.8394E+0
40.3456E+0	21.4915E+3	26.9039E-9	11.1651E+0
40.4219E+0	21.4915E+3	26.4149E-9	11.3689E+0
40.4983E+0	21.4915E+3	25.6135E-9	13.9569E+0
40.5746E+0	21.4915E+3	25.4972E-9	14.5570E+0
40.6509E+0	21.4915E+3	24.2710E-9	12.8743E+0
40.7273E+0	21.4915E+3	24.9302E-9	13.5971E+0
40.8036E+0	21.4915E+3	26.2475E-9	12.7943E+0
40.8800E+0	21.4915E+3	26.2260E-9	13.6756E+0
40.9563E+0	21.4915E+3	25.1796E-9	14.0327E+0
41.0326E+0	21.4915E+3	26.4679E-9	10.3361E+0
41.1090E+0	21.4915E+3	27.1828E-9	15.2784E+0
41.1853E+0	21.4915E+3	25.8278E-9	9.86914E+0
41.2617E+0	21.4915E+3	25.8811E-9	14.8128E+0
41.3380E+0	21.4915E+3	27.2016E-9	14.2842E+0
41.4143E+0	21.4915E+3	26.3394E-9	14.9595E+0
41.4907E+0	21.4915E+3	24.5311E-9	14.8864E+0
41.5670E+0	21.4915E+3	25.7552E-9	17.8721E+0
41.6434E+0	21.4915E+3	25.2903E-9	7.76424E+0
41.7197E+0	21.4915E+3	25.4858E-9	15.9004E+0
41.7960E+0	21.4915E+3	27.5348E-9	13.7322E+0
41.8724E+0	21.4915E+3	24.9878E-9	13.7474E+0
41.9487E+0	21.4915E+3	24.7723E-9	13.6464E+0
42.0251E+0	21.4915E+3	24.2285E-9	16.3558E+0
42.1014E+0	21.4915E+3	24.4812E-9	15.4534E+0
42.1777E+0	21.4915E+3	27.0095E-9	11.3342E+0
42.2541E+0	21.4915E+3	26.9978E-9	11.8675E+0
42.3304E+0	21.4915E+3	26.3216E-9	15.8536E+0
42.4068E+0	21.4915E+3	25.9716E-9	14.7931E+0
42.4831E+0	21.4915E+3	25.8830E-9	9.59251E+0
42.5594E+0	21.4915E+3	25.8348E-9	10.9046E+0
42.6358E+0	21.4915E+3	24.5444E-9	13.6797E+0
42.7121E+0	21.4915E+3	24.6172E-9	10.7088E+0
42.7885E+0	21.4915E+3	27.3559E-9	12.4628E+0
42.8648E+0	21.4915E+3	23.6813E-9	17.1311E+0
42.9411E+0	21.4915E+3	26.9462E-9	12.3333E+0
43.0175E+0	21.4915E+3	25.0100E-9	8.44301E+0
43.0938E+0	21.4915E+3	25.7815E-9	12.2218E+0
43.1702E+0	21.4915E+3	26.9883E-9	13.1107E+0
43.2465E+0	21.4915E+3	26.1926E-9	12.3508E+0
43.3228E+0	21.4915E+3	24.9746E-9	12.8341E+0
43.3992E+0	21.4915E+3	25.5641E-9	16.2726E+0
43.4755E+0	21.4915E+3	24.3920E-9	13.7843E+0
43.5519E+0	21.4915E+3	23.8865E-9	14.2703E+0
43.6282E+0	21.4915E+3	27.5796E-9	12.6673E+0
43.7045E+0	21.4915E+3	24.8780E-9	9.54830E+0
43.7809E+0	21.4915E+3	26.2965E-9	16.0554E+0
43.8572E+0	21.4915E+3	26.4822E-9	9.94835E+0
43.9336E+0	21.4915E+3	25.5937E-9	14.6708E+0
44.0099E+0	21.4915E+3	26.8419E-9	11.3299E+0
44.0862E+0	21.4915E+3	25.2298E-9	11.5003E+0
44.1626E+0	21.4915E+3	24.6599E-9	16.3563E+0
44.2389E+0	21.4915E+3	25.1978E-9	10.7910E+0
44.3153E+0	21.4915E+3	26.5338E-9	15.6505E+0
44.3916E+0	21.4915E+3	24.7402E-9	14.2985E+0
44.4679E+0	21.4915E+3	24.9512E-9	15.8677E+0
44.5443E+0	21.4915E+3	25.5527E-9	10.6858E+0
44.6206E+0	21.4915E+3	25.9254E-9	16.3574E+0
44.6970E+0	21.4915E+3	25.5329E-9	16.8794E+0
44.7733E+0	21.4915E+3	25.4914E-9	12.7265E+0
44.8496E+0	21.4915E+3	26.6393E-9	10.4283E+0
44.9260E+0	21.4915E+3	25.7059E-9	12.6809E+0
45.0023E+0	21.4915E+3	25.8830E-9	18.8335E+0
45.0787E+0	21.4915E+3	23.7822E-9	15.3637E+0
45.1550E+0	21.4915E+3	23.3218E-9	12.9772E+0
45.2313E+0	21.4915E+3	25.1495E-9	13.7706E+0
45.3077E+0	21.4915E+3	25.2381E-9	17.0906E+0
45.3840E+0	21.4915E+3	26.1937E-9	11.9784E+0
45.4604E+0	21.4915E+3	26.1023E-9	13.4444E+0
45.5367E+0	21.4915E+3	27.0233E-9	13.1340E+0
45.6130E+0	21.4915E+3	26.2578E-9	18.0642E+0
45.6894E+0	21.4915E+3	26.0308E-9	15.0589E+0
45.7657E+0	21.4915E+3	24.9310E-9	12.9693E+0
45.8420E+0	21.4915E+3	24.1113E-9	8.07382E+0
45.9184E+0	21.4915E+3	25.9821E-9	14.2193E+0
45.9947E+0	21.4915E+3	25.0238E-9	17.7896E+0
46.0711E+0	21.4915E+3	25.4456E-9	13.6104E+0
46.1474E+0	21.4915E+3	24.8876E-9	13.5193E+0
46.2237E+0	21.4915E+3	23.7551E-9	11.7041E+0
46.3001E+0	21.4915E+3	25.4359E-9	12.9251E+0
46.3764E+0	21.4915E+3	25.2640E-9	12.9741E+0
46.4528E+0	21.4915E+3	25.4426E-9	13.9844E+0
46.5291E+0	21.4915E+3	24.3739E-9	17.4056E+0
46.6054E+0	21.4915E+3	24.3414E-9	13.7243E+0
46.6818E+0	21.4915E+3	24.1907E-9	12.5492E+0
46.7581E+0	21.4915E+3	25.7761E-9	13.1149E+0
46.8345E+0	21.4915E+3	24.2115E-9	12.3190E+0
46.9108E+0	21.4915E+3	24.8776E-9	13.7490E+0
46.9871E+0	21.4915E+3	25.6511E-9	13.8399E+0
47.0635E+0	21.4915E+3	24.0511E-9	15.5587E+0
47.1398E+0	21.4915E+3	24.8818E-9	14.2134E+0
47.2162E+0	21.4915E+3	24.9739E-9	10.4575E+0
47.2925E+0	21.4915E+3	23.2034E-9	11.4453E+0
47.3688E+0	21.4915E+3	25.4920E-9	15.9671E+0
47.4452E+0	21.4915E+3	23.6304E-9	14.6418E+0
47.5215E+0	21.4915E+3	25.9160E-9	8.14005E+0
47.5979E+0	21.4915E+3	25.8202E-9	16.7707E+0
47.6742E+0	21.4915E+3	26.2074E-9	14.6121E+0
47.7505E+0	21.4915E+3	24.2270E-9	12.3454E+0
47.8269E+0	21.4915E+3	26.5868E-9	15.8208E+0
47.9032E+0	21.4915E+3	25.7562E-9	7.74195E+0
47.9796E+0	21.4915E+3	24.7353E-9	12.6627E+0
48.0559E+0	21.4915E+3	25.4811E-9	14.4143E+0
48.1322E+0	21.4915E+3	26.0732E-9	10.7742E+0
48.2086E+0	21.4915E+3	23.8491E-9	13.0473E+0
48.2849E+0	21.4915E+3	24.5459E-9	10.2962E+0
48.3613E+0	21.4915E+3	25.0030E-9	16.1580E+0
48.4376E+0	21.4915E+3	25.4135E-9	17.8949E+0
48.5139E+0	21.4915E+3	23.9559E-9	12.3047E+0
48.5903E+0	21.4915E+3	23.3447E-9	9.57627E+0
48.6666E+0	21.4915E+3	25.6248E-9	11.0813E+0
48.7430E+0	21.4915E+3	24.0301E-9	12.7988E+0
48.8193E+0	21.4915E+3	23.5672E-9	14.3374E+0
48.8956E+0	21.4915E+3	24.9635E-9	16.5872E+0
48.9720E+0	21.4915E+3	24.8360E-9	14.2873E+0
49.0483E+0	21.4915E+3	26.3347E-9	16.4543E+0
49.1247E+0	21.4915E+3	23.4877E-9	10.2136E+0
49.2010E+0	21.4915E+3	25.0710E-9	15.5932E+0
49.2773E+0	21.4915E+3	25.9740E-9	14.0870E+0
49.3537E+0	21.4915E+3	24.5856E-9	10.2806E+0
49.4300E+0	21.4915E+3	25.8547E-9	17.2842E+0
49.5064E+0	21.4915E+3	23.6082E-9	12.6216E+0
49.5827E+0	21.4915E+3	25.6429E-9	15.3608E+0
49.6590E+0	21.4915E+3	24.4988E-9	11.9306E+0
49.7354E+0	21.4915E+3	24.9019E-9	12.6558E+0
49.8117E+0	21.4915E+3	25.6406E-9	13.4366E+0
49.8881E+0	21.4915E+3	24.8759E-9	12.6561E+0
49.9644E+0	21.4915E+3	25.6780E-9	16.1767E+0
50.0407E+0	21.4915E+3	24.7663E-9	10.1496E+0
50.1171E+0	21.4915E+3	26.2469E-9	13.9835E+0
50.1934E+0	21.4915E+3	26.1172E-9	16.8485E+0
50.2698E+0	21.4915E+3	23.8660E-9	17.4091E+0
50.3461E+0	21.4915E+3	26.3413E-9	13.2390E+0
50.4224E+0	21.4915E+3	25.5353E-9	14.2302E+0
50.4988E+0	21.4915E+3	24.6928E-9	10.3463E+0
50.5751E+0	21.4915E+3	26.4431E-9	14.5160E+0
50.6515E+0	21.4915E+3	23.7897E-9	19.7932E+0
50.7278E+0	21.4915E+3	24.2300E-9	8.50320E+0
50.8041E+0	21.4915E+3	24.2873E-9	13.4614E+0
50.8805E+0	21.4915E+3	25.2320E-9	19.6882E+0
50.9568E+0	21.4915E+3	26.0421E-9	16.8326E+0
51.0331E+0	21.4915E+3	23.9767E-9	12.0874E+0
51.1095E+0	21.4915E+3	27.2787E-9	15.4249E+0
51.1858E+0	21.4915E+3	26.5340E-9	15.7260E+0
51.2622E+0	21.4915E+3	24.4262E-9	11.5072E+0
51.3385E+0	21.4915E+3	23.6440E-9	10.7535E+0
51.4148E+0	21.4915E+3	25.9381E-9	15.5431E+0
51.4912E+0	21.4915E+3	23.4781E-9	15.4981E+0
51.5675E+0	21.4915E+3	24.9354E-9	15.4184E+0
51.6439E+0	21.4915E+3	24.9744E-9	13.6457E+0
51.7202E+0	21.4915E+3	23.7462E-9	15.1079E+0
51.7965E+0	21.4915E+3	24.8040E-9	11.3179E+0
51.8729E+0	21.4915E+3	25.6112E-9	13.0183E+0
51.9492E+0	21.4915E+3	24.5858E-9	19.4956E+0
52.0256E+0	21.4915E+3	24.1364E-9	13.3607E+0
52.1019E+0	21.4915E+3	25.3479E-9	15.6398E+0
52.1782E+0	21.4915E+3	24.8303E-9	11.8117E+0
52.2546E+0	21.4915E+3	24.4563E-9	12.0985E+0
52.3309E+0	21.4915E+3	25.9694E-9	10.8020E+0
52.4073E+0	21.4915E+3	26.4475E-9	16.9523E+0
52.4836E+0	21.4915E+3	23.9721E-9	12.9306E+0
52.5599E+0	21.4915E+3	23.9683E-9	14.8700E+0
52.6363E+0	21.4915E+3	25.6965E-9	15.0463E+0
52.7126E+0	21.4915E+3	23.5945E-9	10.8797E+0
52.7890E+0	21.4915E+3	22.6572E-9	20.8870E+0
52.8653E+0	21.4915E+3	25.4457E-9	13.3559E+0
52.9416E+0	21.4915E+3	25.4908E-9	12.9427E+0
53.0180E+0	21.4915E+3	24.5838E-9	16.1375E+0
53.0943E+0	21.4915E+3	24.8920E-9	14.0894E+0
53.1707E+0	21.4915E+3	23.4393E-9	16.5589E+0
53.2470E+0	21.4915E+3	25.7912E-9	11.2151E+0
53.3233E+0	21.4915E+3	23.8911E-9	17.1794E+0
53.3997E+0	21.4915E+3	25.6630E-9	12.1662E+0
53.4760E+0	21.4915E+3	23.3896E-9	12.6990E+0
53.5524E+0	21.4915E+3	25.1808E-9	13.5863E+0
53.6287E+0	21.4915E+3	23.8071E-9	15.3632E+0
53.7050E+0	21.4915E+3	24.8284E-9	13.9392E+0
53.7814E+0	21.4915E+3	26.8508E-9	15.1995E+0
53.8577E+0	21.4915E+3	22.7212E-9	11.6896E+0
53.9341E+0	21.4915E+3	24.3148E-9	12.4239E+0
54.0104E+0	21.4915E+3	23.3012E-9	9.89156E+0
54.0867E+0	21.4915E+3	25.7211E-9	13.3076E+0
54.1631E+0	21.4915E+3	25.1127E-9	13.4696E+0
54.2394E+0	21.4915E+3	23.2312E-9	12.3935E+0
54.3158E+0	21.4915E+3	25.7013E-9	12.8203E+0
54.3921E+0	21.4915E+3	25.7823E-9	15.6407E+0
54.4684E+0	21.4915E+3	23.1211E-9	15.2241E+0
54.5448E+0	21.4915E+3	24.4282E-9	16.6452E+0
54.6211E+0	21.4915E+3	23.9853E-9	21.6654E+0
54.6975E+0	21.4915E+3	23.8823E-9	18.9006E+0
54.7738E+0	21.4915E+3	24.8872E-9	18.7482E+0
54.8501E+0	21.4915E+3	24.0421E-9	15.2992E+0
54.9265E+0	21.4915E+3	23.8033E-9	11.6075E+0
55.0028E+0	21.4915E+3	23.2789E-9	14.3450E+0
55.0792E+0	21.4915E+3	25.7707E-9	18.7081E+0
55.1555E+0	21.4915E+3	24.8115E-9	12.4096E+0
55.2318E+0	21.4915E+3	27.3109E-9	19.7589E+0
55.3082E+0	21.4915E+3	25.0528E-9	14.3727E+0
55.3845E+0	21.4915E+3	24.9554E-9	10.0532E+0
55.4609E+0	21.4915E+3	24.7884E-9	16.2305E+0
55.5372E+0	21.4915E+3	23.1750E-9	13.3202E+0
55.6135E+0	21.4915E+3	22.3013E-9	18.1881E+0
55.6899E+0	21.4915E+3	26.0822E-9	16.6435E+0
55.7662E+0	21.4915E+3	25.5039E-9	12.4893E+0
55.8426E+0	21.4915E+3	25.0765E-9	14.5437E+0
55.9189E+0	21.4915E+3	23.9317E-9	15.3664E+0
55.9952E+0	21.4915E+3	23.0954E-9	15.9114E+0
56.0716E+0	21.4915E+3	22.5309E-9	20.3634E+0
56.1479E+0	21.4915E+3	25.3304E-9	12.1360E+0
56.2243E+0	21.4915E+3	25.5612E-9	16.7638E+0
56.3006E+0	21.4915E+3	24.7522E-9	14.7138E+0
56.3769E+0	21.4915E+3	23.5007E-9	10.6277E+0
56.4533E+0	21.4915E+3	23.3238E-9	10.5256E+0
56.5296E+0	21.4915E+3	23.2218E-9	10.9795E+0
56.6059E+0	21.4915E+3	23.7190E-9	14.0771E+0
56.6823E+0	21.4915E+3	23.2347E-9	16.4707E+0
56.7586E+0	21.4915E+3	23.2206E-9	17.0612E+0
56.8350E+0	21.4915E+3	24.8533E-9	16.1914E+0
56.9113E+0	21.4915E+3	23.9273E-9	16.8024E+0
56.9876E+0	21.4915E+3	23.2836E-9	15.0498E+0
57.0640E+0	21.4915E+3	24.9649E-9	18.8462E+0
57.1403E+0	21.4915E+3	22.2828E-9	15.6925E+0
57.2167E+0	21.4915E+3	22.2864E-9	20.5421E+0
57.2930E+0	21.4915E+3	23.3602E-9	17.8857E+0
57.3693E+0	21.4915E+3	25.5407E-9	11.7835E+0
57.4457E+0	21.4915E+3	27.1680E-9	17.8004E+0
57.5220E+0	21.4915E+3	23.0106E-9	19.6991E+0
57.5984E+0	21.4915E+3	24.3230E-9	14.1108E+0
57.6747E+0	21.4915E+3	22.7187E-9	12.0913E+0
57.7510E+0	21.4915E+3	23.4693E-9	12.3602E+0
57.8274E+0	21.4915E+3	23.5275E-9	13.2378E+0
57.9037E+0	21.4915E+3	25.4781E-9	12.8794E+0
57.9801E+0	21.4915E+3	23.9962E-9	13.1655E+0
58.0564E+0	21.4915E+3	24.4220E-9	13.1336E+0
58.1327E+0	21.4915E+3	23.2321E-9	17.1922E+0
58.2091E+0	21.4915E+3	22.8983E-9	15.3806E+0
58.2854E+0	21.4915E+3	22.4327E-9	17.7686E+0
58.3618E+0	21.4915E+3	22.6041E-9	11.5788E+0
58.4381E+0	21.4915E+3	24.2482E-9	17.5861E+0
58.5144E+0	21.4915E+3	23.1210E-9	15.7085E+0
58.5908E+0	21.4915E+3	24.9055E-9	12.9673E+0
58.6671E+0	21.4915E+3	23.0958E-9	16.4091E+0
58.7435E+0	21.4915E+3	24.4352E-9	9.83319E+0
58.8198E+0	21.4915E+3	24.3428E-9	11.8860E+0
58.8961E+0	21.4915E+3	24.9829E-9	13.6914E+0
58.9725E+0	21.4915E+3	21.4576E-9	20.7711E+0
59.0488E+0	21.4915E+3	23.8010E-9	13.8679E+0
59.1252E+0	21.4915E+3	23.5531E-9	15.4427E+0
59.2015E+0	21.4915E+3	25.0357E-9	14.1116E+0
59.2778E+0	21.4915E+3	25.8162E-9	11.8128E+0
59.3542E+0	21.4915E+3	24.6591E-9	17.1680E+0
59.4305E+0	21.4915E+3	23.1114E-9	15.6364E+0
59.5069E+0	21.4915E+3	24.7657E-9	7.57689E+0
59.5832E+0	21.4915E+3	24.2350E-9	17.5560E+0
59.6595E+0	21.4915E+3	25.0407E-9	15.0475E+0
59.7359E+0	21.4915E+3	21.9807E-9	10.1515E+0
59.8122E+0	21.4915E+3	22.4887E-9	11.8618E+0
59.8886E+0	21.4915E+3	25.1094E-9	17.8752E+0
59.9649E+0	21.4915E+3	24.6356E-9	10.6047E+0
60.0412E+0	21.4915E+3	23.0875E-9	16.3070E+0
60.1176E+0	21.4915E+3	23.1113E-9	18.2388E+0
60.1939E+0	21.4915E+3	22.7408E-9	16.2941E+0
60.2703E+0	21.4915E+3	25.1379E-9	16.0709E+0
60.3466E+0	21.4915E+3	22.0759E-9	9.79177E+0
60.4229E+0	21.4915E+3	25.6539E-9	13.0647E+0
60.4993E+0	21.4915E+3	22.5864E-9	13.7587E+0
60.5756E+0	21.4915E+3	24.9528E-9	13.6294E+0
60.6520E+0	21.4915E+3	22.3116E-9	12.1619E+0
60.7283E+0	21.4915E+3	24.3050E-9	14.3163E+0
60.8046E+0	21.4915E+3	25.1882E-9	13.7255E+0
60.8810E+0	21.4915E+3	24.7836E-9	15.2559E+0
60.9573E+0	21.4915E+3	23.4067E-9	18.2550E+0
61.0337E+0	21.4915E+3	27.2295E-9	13.6977E+0
61.1100E+0	21.4915E+3	23.8892E-9	16.7199E+0
61.1863E+0	21.4915E+3	24.8602E-9	20.6095E+0
61.2627E+0	21.4915E+3	25.5425E-9	8.55908E+0
61.3390E+0	21.4915E+3	24.3687E-9	17.1642E+0
61.4154E+0	21.4915E+3	23.8601E-9	21.3163E+0
61.4917E+0	21.4915E+3	22.0150E-9	16.3840E+0
61.5680E+0	21.4915E+3	24.3259E-9	16.3457E+0
61.6444E+0	21.4915E+3	24.9609E-9	15.5284E+0
61.7207E+0	21.4915E+3	22.4674E-9	13.5559E+0
61.7971E+0	21.4915E+3	23.3843E-9	14.4958E+0
61.8734E+0	21.4915E+3	20.9810E-9	14.6679E+0
61.9497E+0	21.4915E+3	23.4483E-9	12.1632E+0
62.0261E+0	21.4915E+3	25.2485E-9	19.8762E+0
62.1024E+0	21.4915E+3	22.0059E-9	12.6717E+0
62.1787E+0	21.4915E+3	23.2266E-9	12.2348E+0
62.2551E+0	21.4915E+3	26.8891E-9	14.2451E+0
62.3314E+0	21.4915E+3	24.6872E-9	16.1948E+0
62.4078E+0	21.4915E+3	22.1425E-9	15.6778E+0
62.4841E+0	21.4915E+3	25.4270E-9	19.5313E+0
62.5604E+0	21.4915E+3	21.4074E-9	16.7429E+0
62.6368E+0	21.4915E+3	22.7372E-9	21.7599E+0
62.7131E+0	21.4915E+3	23.7083E-9	13.5479E+0
62.7895E+0	21.4915E+3	24.5984E-9	12.4775E+0
62.8658E+0	21.4915E+3	23.4117E-9	14.0165E+0
62.9421E+0	21.4915E+3	23.9090E-9	16.4516E+0
63.0185E+0	21.4915E+3	23.3923E-9	12.2757E+0
63.0948E+0	21.4915E+3	25.0500E-9	16.7234E+0
63.1712E+0	21.4915E+3	24.3267E-9	15.1062E+0
63.2475E+0	21.4915E+3	21.9846E-9	18.7031E+0
63.3238E+0	21.4915E+3	25.0733E-9	12.7733E+0
63.4002E+0	21.4915E+3	24.4510E-9	7.93461E+0
63.4765E+0	21.4915E+3	25.3336E-9	17.8284E+0
63.5529E+0	21.4915E+3	23.3536E-9	18.4968E+0
63.6292E+0	21.4915E+3	23.9156E-9	16.6910E+0
63.7055E+0	21.4915E+3	24.3072E-9	14.3381E+0
63.7819E+0	21.4915E+3	22.0330E-9	15.1890E+0
63.8582E+0	21.4915E+3	26.2742E-9	16.3722E+0
63.9346E+0	21.4915E+3	25.9712E-9	16.7012E+0
64.0109E+0	21.4915E+3	23.0446E-9	13.1571E+0
64.0872E+0	21.4915E+3	24.4169E-9	18.1997E+0
64.1636E+0	21.4915E+3	23.1653E-9	16.5200E+0
64.2399E+0	21.4915E+3	22.8906E-9	19.7310E+0
64.3163E+0	21.4915E+3	25.6972E-9	15.8770E+0
64.3926E+0	21.4915E+3	22.6807E-9	17.0675E+0
64.4689E+0	21.4915E+3	22.4461E-9	18.3123E+0
64.5453E+0	21.4915E+3	24.1269E-9	13.7903E+0
64.6216E+0	21.4915E+3	25.4697E-9	18.9678E+0
64.6980E+0	21.4915E+3	21.6631E-9	13.5814E+0
64.7743E+0	21.4915E+3	22.7305E-9	18.8157E+0
64.8506E+0	21.4915E+3	24.9692E-9	15.3226E+0
64.9270E+0	21.4915E+3	23.3234E-9	16.7527E+0
65.0033E+0	21.4915E+3	21.5177E-9	11.3843E+0
65.0797E+0	21.4915E+3	24.9948E-9	16.3545E+0
65.1560E+0	21.4915E+3	23.7765E-9	15.3496E+0
65.2323E+0	21.4915E+3	24.3371E-9	13.2888E+0
65.3087E+0	21.4915E+3	24.8372E-9	15.3024E+0
65.3850E+0	21.4915E+3	22.5885E-9	13.1847E+0
65.4614E+0	21.4915E+3	23.9591E-9	13.7386E+0
65.5377E+0	21.4915E+3	23.1499E-9	8.77248E+0
65.6140E+0	21.4915E+3	26.1126E-9	9.90608E+0
65.6904E+0	21.4915E+3	23.5397E-9	8.46018E+0
65.7667E+0	21.4915E+3	23.0192E-9	13.3348E+0
65.8431E+0	21.4915E+3	23.7562E-9	18.5429E+0
65.9194E+0	21.4915E+3	25.1425E-9	16.7447E+0
65.9957E+0	21.4915E+3	24.6720E-9	12.5493E+0
66.0721E+0	21.4915E+3	25.6954E-9	18.2961E+0
66.1484E+0	21.4915E+3	23.1835E-9	10.8142E+0
66.2248E+0	21.4915E+3	23.1260E-9	20.9616E+0
66.3011E+0	21.4915E+3	25.1540E-9	8.38096E+0
66.3774E+0	21.4915E+3	20.8921E-9	14.1844E+0
66.4538E+0	21.4915E+3	23.7251E-9	11.7877E+0
66.5301E+0	21.4915E+3	24.1755E-9	16.0101E+0
66.6065E+0	21.4915E+3	22.9447E-9	15.3718E+0
66.6828E+0	21.4915E+3	23.5038E-9	16.1818E+0
66.7591E+0	21.4915E+3	23.6117E-9	13.6151E+0
66.8355E+0	21.4915E+3	22.1701E-9	18.6726E+0
66.9118E+0	21.4915E+3	23.0017E-9	17.5243E+0
66.9882E+0	21.4915E+3	22.2089E-9	13.5536E+0
67.0645E+0	21.4915E+3	22.3262E-9	13.7069E+0
67.1408E+0	21.4915E+3	23.7699E-9	12.7259E+0
67.2172E+0	21.4915E+3	24.8763E-9	15.2663E+0
67.2935E+0	21.4915E+3	25.2411E-9	17.1432E+0
67.3699E+0	21.4915E+3	23.5067E-9	15.8940E+0
67.4462E+0	21.4915E+3	24.4299E-9	16.6361E+0
67.5225E+0	21.4915E+3	24.7391E-9	15.9579E+0
67.5989E+0	21.4915E+3	25.6301E-9	13.2372E+0
67.6752E+0	21.4915E+3	21.2209E-9	13.8104E+0
67.7515E+0	21.4915E+3	21.7947E-9	15.3518E+0
67.8279E+0	21.4915E+3	22.6591E-9	19.7932E+0
67.9042E+0	21.4915E+3	24.4337E-9	19.3836E+0
67.9806E+0	21.4915E+3	24.5736E-9	19.4360E+0
68.0569E+0	21.4915E+3	23.8398E-9	17.0848E+0
68.1332E+0	21.4915E+3	21.1252E-9	19.6569E+0
68.2096E+0	21.4915E+3	25.3342E-9	18.3426E+0
68.2859E+0	21.4915E+3	22.8345E-9	10.3015E+0
68.3623E+0	21.4915E+3	22.4003E-9	14.3330E+0
68.4386E+0	21.4915E+3	21.9786E-9	13.6898E+0
68.5149E+0	21.4915E+3	22.2989E-9	25.5332E+0
68.5913E+0	21.4915E+3	22.6971E-9	12.6575E+0
68.6676E+0	21.4915E+3	24.1440E-9	17.7301E+0
68.7440E+0	21.4915E+3	23.6688E-9	9.78509E+0
68.8203E+0	21.4915E+3	20.8937E-9	17.9156E+0
68.8966E+0	21.4915E+3	24.4604E-9	16.3509E+0
68.9730E+0	21.4915E+3	22.5323E-9	15.1439E+0
69.0493E+0	21.4915E+3	23.7456E-9	21.3930E+0
69.1257E+0	21.4915E+3	26.3732E-9	12.9053E+0
69.2020E+0	21.4915E+3	24.3279E-9	16.2884E+0
69.2783E+0	21.4915E+3	22.7333E-9	9.28794E+0
69.3547E+0	21.4915E+3	23.9333E-9	14.4687E+0
69.4310E+0	21.4915E+3	23.1176E-9	17.9821E+0
69.5074E+0	21.4915E+3	23.7895E-9	13.7804E+0
69.5837E+0	21.4915E+3	23.6515E-9	14.7697E+0
69.6600E+0	21.4915E+3	24.2632E-9	16.9888E+0
69.7364E+0	21.4915E+3	22.0302E-9	14.1743E+0
69.8127E+0	21.4915E+3	24.2795E-9	17.3462E+0
69.8891E+0	21.4915E+3	22.6326E-9	16.7200E+0
69.9654E+0	21.4915E+3	24.5555E-9	16.4963E+0
70.0417E+0	21.4915E+3	22.8562E-9	12.7440E+0
70.1181E+0	21.4915E+3	25.1673E-9	11.1010E+0
70.1944E+0	21.4915E+3	22.3243E-9	20.1764E+0
70.2708E+0	21.4915E+3	22.9569E-9	11.9727E+0
70.3471E+0	21.4915E+3	21.8216E-9	16.6734E+0
70.4234E+0	21.4915E+3	22.8840E-9	18.3360E+0
70.4998E+0	21.4915E+3	21.3371E-9	13.9968E+0
70.5761E+0	21.4915E+3	22.4558E-9	15.4201E+0
70.6525E+0	21.4915E+3	25.0955E-9	12.9524E+0
70.7288E+0	21.4915E+3	21.5573E-9	12.7558E+0
70.8051E+0	21.4915E+3	22.1457E-9	19.0407E+0
70.8815E+0	21.4915E+3	22.2011E-9	16.3206E+0
70.9578E+0	21.4915E+3	23.4721E-9	13.1557E+0
71.0342E+0	21.4915E+3	22.9908E-9	18.2372E+0
71.1105E+0	21.4915E+3	22.2285E-9	16.1244E+0
71.1868E+0	21.4915E+3	23.2334E-9	17.5726E+0
71.2632E+0	21.4915E+3	24.1728E-9	17.0374E+0
71.3395E+0	21.4915E+3	21.4584E-9	17.1679E+0
71.4159E+0	21.4915E+3	23.1575E-9	18.7451E+0
71.4922E+0	21.4915E+3	23.4745E-9	15.7118E+0
71.5685E+0	21.4915E+3	23.0521E-9	10.7727E+0
71.6449E+0	21.4915E+3	21.8870E-9	13.7715E+0
71.7212E+0	21.4915E+3	23.0824E-9	17.0314E+0
71.7976E+0	21.4915E+3	22.6951E-9	12.1780E+0
71.8739E+0	21.4915E+3	25.2410E-9	15.4438E+0
71.9502E+0	21.4915E+3	21.3000E-9	13.1325E+0
72.0266E+0	21.4915E+3	23.9370E-9	11.5969E+0
72.1029E+0	21.4915E+3	22.9285E-9	18.3135E+0
72.1793E+0	21.4915E+3	22.1522E-9	12.5141E+0
72.2556E+0	21.4915E+3	22.4251E-9	14.2726E+0
72.3319E+0	21.4915E+3	23.0247E-9	20.9070E+0
72.4083E+0	21.4915E+3	23.7663E-9	23.6043E+0
72.4846E+0	21.4915E+3	23.0294E-9	18.8128E+0
72.5610E+0	21.4915E+3	24.2785E-9	14.5878E+0
72.6373E+0	21.4915E+3	24.8411E-9	14.1271E+0
72.7136E+0	21.4915E+3	23.8791E-9	9.44522E+0
72.7900E+0	21.4915E+3	23.0455E-9	23.1949E+0
72.8663E+0	21.4915E+3	22.4277E-9	19.4419E+0
72.9426E+0	21.4915E+3	23.6628E-9	17.1543E+0
73.0190E+0	21.4915E+3	24.6843E-9	13.9948E+0
73.0953E+0	21.4915E+3	24.1840E-9	14.3851E+0
73.1717E+0	21.4915E+3	23.2960E-9	13.9733E+0
73.2480E+0	21.4915E+3	22.3396E-9	16.7471E+0
73.3243E+0	21.4915E+3	22.3350E-9	18.7920E+0
73.4007E+0	21.4915E+3	24.9949E-9	16.6321E+0
73.4770E+0	21.4915E+3	21.8205E-9	4.65554E+0
73.5534E+0	21.4915E+3	24.6875E-9	18.3054E+0
73.6297E+0	21.4915E+3	22.6651E-9	18.3778E+0
73.7060E+0	21.4915E+3	23.4027E-9	13.1219E+0
73.7824E+0	21.4915E+3	23.2238E-9	14.6773E+0
73.8587E+0	21.4915E+3	22.6550E-9	20.4980E+0
73.9351E+0	21.4915E+3	22.5330E-9	7.40157E+0
74.0114E+0	21.4915E+3	23.8661E-9	16.7193E+0
74.0877E+0	21.4915E+3	22.8010E-9	19.7029E+0
74.1641E+0	21.4915E+3	19.5872E-9	12.3725E+0
74.2404E+0	21.4915E+3	21.7612E-9	17.5161E+0
74.3168E+0	21.4915E+3	21.3618E-9	17.7789E+0
74.3931E+0	21.4915E+3	22.2126E-9	16.7495E+0
74.4694E+0	21.4915E+3	23.8008E-9	16.9265E+0
74.5458E+0	21.4915E+3	22.3663E-9	15.9848E+0
74.6221E+0	21.4915E+3	22.1897E-9	12.4044E+0
74.6985E+0	21.4915E+3	21.7182E-9	17.5467E+0
74.7748E+0	21.4915E+3	22.5022E-9	19.6867E+0
74.8511E+0	21.4915E+3	23.1324E-9	14.4258E+0
74.9275E+0	21.4915E+3	23.4998E-9	20.5656E+0
75.0038E+0	21.4915E+3	23.2170E-9	15.3253E+0
75.0802E+0	21.4915E+3	23.2292E-9	14.5203E+0
75.1565E+0	21.4915E+3	21.0053E-9	15.5506E+0
75.2328E+0	21.4915E+3	22.2795E-9	13.3019E+0
75.3092E+0	21.4915E+3	22.6495E-9	19.2689E+0
75.3855E+0	21.4915E+3	24.5241E-9	18.4265E+0
75.4619E+0	21.4915E+3	24.5105E-9	21.1504E+0
75.5382E+0	21.4915E+3	23.8656E-9	14.4241E+0
75.6145E+0	21.4915E+3	23.2261E-9	17.2616E+0
75.6909E+0	21.4915E+3	24.1771E-9	21.6051E+0
75.7672E+0	21.4915E+3	25.1676E-9	16.7474E+0
75.8436E+0	21.4915E+3	24.4283E-9	13.0331E+0
75.9199E+0	21.4915E+3	23.5997E-9	16.8170E+0
75.9962E+0	21.4915E+3	22.7155E-9	16.5618E+0
76.0726E+0	21.4915E+3	23.1224E-9	14.4152E+0
76.1489E+0	21.4915E+3	23.3790E-9	15.5033E+0
76.2253E+0	21.4915E+3	22.6546E-9	19.6882E+0
76.3016E+0	21.4915E+3	23.6686E-9	18.4196E+0
